LabVIEW Measurement,,
Writer_Version,2,
Reader_Version,2,
Separator,Tab,
Decimal_Separator,.,
Multi_Headings,Yes,
X_Columns,Multi,
Time_Pref,Absolute,
Operator,RHAYESHUER,
Date,2/19/2020,
Time,47:48.6,
***End_of_Header***,,
,,
Channels,1,
Samples,7000,
Date,2/19/2020,
Time,47:48.6,
Y_Unit_Label,Volts,
X_Dimension,Time,
X0,0.00E+00,
Delta_X,0.001,
***End_of_Header***,,
X_Value,Voltage,Comment
0,4.968181,140.5 cm
0.001,4.969497,
0.002,4.968839,
0.003,4.968181,
0.004,4.967853,
0.005,4.969168,
0.006,4.971141,
0.007,4.970812,
0.008,4.969168,
0.009,4.969825,
0.01,4.971141,
0.011,4.970154,
0.012,4.968839,
0.013,4.967853,
0.014,4.969825,
0.015,4.970812,
0.016,4.970154,
0.017,4.968839,
0.018,4.968839,
0.019,4.968839,
0.02,4.969497,
0.021,4.96851,
0.022,4.967195,
0.023,4.967853,
0.024,4.968839,
0.025,4.96851,
0.026,4.967524,
0.027,4.96588,
0.028,4.967195,
0.029,4.967524,
0.03,4.967524,
0.031,4.965551,
0.032,4.968181,
0.033,4.969168,
0.034,4.969497,
0.035,4.96851,
0.036,4.96588,
0.037,4.967853,
0.038,4.969168,
0.039,4.967524,
0.04,4.967524,
0.041,4.969168,
0.042,4.971141,
0.043,4.971141,
0.044,4.968839,
0.045,4.969497,
0.046,4.971798,
0.047,4.973113,
0.048,4.970812,
0.049,4.971141,
0.05,4.972456,
0.051,4.973113,
0.052,4.972127,
0.053,4.969168,
0.054,4.969497,
0.055,4.972456,
0.056,4.971798,
0.057,4.970483,
0.058,4.971141,
0.059,4.970154,
0.06,4.971469,
0.061,4.968839,
0.062,4.967524,
0.063,4.96851,
0.064,4.968839,
0.065,4.969825,
0.066,4.96851,
0.067,4.966537,
0.068,4.968181,
0.069,4.967524,
0.07,4.966537,
0.071,4.967195,
0.072,4.966866,
0.073,4.969497,
0.074,4.96851,
0.075,4.967195,
0.076,4.96851,
0.077,4.96851,
0.078,4.969168,
0.079,4.967524,
0.08,4.967195,
0.081,4.968839,
0.082,4.970154,
0.083,4.969825,
0.084,4.969497,
0.085,4.969497,
0.086,4.969825,
0.087,4.970154,
0.088,4.968839,
0.089,4.969168,
0.09,4.970154,
0.091,4.970812,
0.092,4.971141,
0.093,4.970483,
0.094,4.967195,
0.095,4.969168,
0.096,4.970154,
0.097,4.970483,
0.098,4.968839,
0.099,4.968181,
0.1,4.969497,
0.101,4.970154,
0.102,4.967195,
0.103,4.96588,
0.104,4.965551,
0.105,4.967524,
0.106,4.968181,
0.107,4.96588,
0.108,4.966866,
0.109,4.969168,
0.11,4.968839,
0.111,4.96588,
0.112,4.966537,
0.113,4.967853,
0.114,4.970154,
0.115,4.967853,
0.116,4.967195,
0.117,4.969497,
0.118,4.971141,
0.119,4.969825,
0.12,4.968839,
0.121,4.969497,
0.122,4.972456,
0.123,4.972456,
0.124,4.970812,
0.125,4.971798,
0.126,4.972456,
0.127,4.972785,
0.128,4.970154,
0.129,4.970154,
0.13,4.970483,
0.131,4.972127,
0.132,4.972456,
0.133,4.970812,
0.134,4.970483,
0.135,4.972127,
0.136,4.970483,
0.137,4.968839,
0.138,4.96851,
0.139,4.969497,
0.14,4.969825,
0.141,4.969825,
0.142,4.96851,
0.143,4.968839,
0.144,4.967853,
0.145,4.968181,
0.146,4.967524,
0.147,4.966866,
0.148,4.968181,
0.149,4.969497,
0.15,4.96851,
0.151,4.966866,
0.152,4.967195,
0.153,4.967524,
0.154,4.968181,
0.155,4.967195,
0.156,4.966866,
0.157,4.969168,
0.158,4.970483,
0.159,4.969497,
0.16,4.968839,
0.161,4.968839,
0.162,4.970483,
0.163,4.969825,
0.164,4.968839,
0.165,4.969497,
0.166,4.970154,
0.167,4.971141,
0.168,4.969497,
0.169,4.967853,
0.17,4.969497,
0.171,4.969497,
0.172,4.968839,
0.173,4.968839,
0.174,4.969497,
0.175,4.970154,
0.176,4.969825,
0.177,4.966866,
0.178,4.96588,
0.179,4.96851,
0.18,4.967524,
0.181,4.967195,
0.182,4.966866,
0.183,4.967853,
0.184,4.969168,
0.185,4.968181,
0.186,4.965551,
0.187,4.966866,
0.188,4.968839,
0.189,4.969168,
0.19,4.967853,
0.191,4.966866,
0.192,4.968839,
0.193,4.970154,
0.194,4.969168,
0.195,4.967853,
0.196,4.967853,
0.197,4.971798,
0.198,4.972456,
0.199,4.971469,
0.2,4.971469,
0.201,4.971798,
0.202,4.972785,
0.203,4.971469,
0.204,4.970154,
0.205,4.969825,
0.206,4.971469,
0.207,4.972785,
0.208,4.971469,
0.209,4.970483,
0.21,4.971798,
0.211,4.972127,
0.212,4.970154,
0.213,4.969168,
0.214,4.969168,
0.215,4.969497,
0.216,4.969825,
0.217,4.967524,
0.218,4.966537,
0.219,4.966866,
0.22,4.967524,
0.221,4.966866,
0.222,4.96588,
0.223,4.966866,
0.224,4.967853,
0.225,4.968181,
0.226,4.967195,
0.227,4.965551,
0.228,4.966209,
0.229,4.967853,
0.23,4.967195,
0.231,4.96588,
0.232,4.967524,
0.233,4.969497,
0.234,4.969825,
0.235,4.969168,
0.236,4.967195,
0.237,4.969825,
0.238,4.970812,
0.239,4.970812,
0.24,4.96851,
0.241,4.970154,
0.242,4.972127,
0.243,4.973113,
0.244,4.969825,
0.245,4.96851,
0.246,4.971141,
0.247,4.971798,
0.248,4.970483,
0.249,4.970154,
0.25,4.971141,
0.251,4.972127,
0.252,4.971141,
0.253,4.96851,
0.254,4.968181,
0.255,4.969825,
0.256,4.969825,
0.257,4.968181,
0.258,4.968181,
0.259,4.969825,
0.26,4.969497,
0.261,4.966537,
0.262,4.966866,
0.263,4.968181,
0.264,4.970154,
0.265,4.968839,
0.266,4.968181,
0.267,4.96851,
0.268,4.970154,
0.269,4.967524,
0.27,4.967195,
0.271,4.96851,
0.272,4.970483,
0.273,4.970812,
0.274,4.969825,
0.275,4.970483,
0.276,4.972456,
0.277,4.971798,
0.278,4.969825,
0.279,4.969168,
0.28,4.970154,
0.281,4.971469,
0.282,4.971469,
0.283,4.969168,
0.284,4.969497,
0.285,4.970812,
0.286,4.970154,
0.287,4.96851,
0.288,4.968181,
0.289,4.969497,
0.29,4.970483,
0.291,4.969168,
0.292,4.967853,
0.293,4.966537,
0.294,4.967524,
0.295,4.967195,
0.296,4.96588,
0.297,4.966209,
0.298,4.966866,
0.299,4.967524,
0.3,4.96851,
0.301,4.966866,
0.302,4.96588,
0.303,4.966866,
0.304,4.966537,
0.305,4.966866,
0.306,4.966209,
0.307,4.967524,
0.308,4.969168,
0.309,4.968839,
0.31,4.96588,
0.311,4.966209,
0.312,4.968181,
0.313,4.969497,
0.314,4.96851,
0.315,4.968839,
0.316,4.971141,
0.317,4.972127,
0.318,4.969825,
0.319,4.96851,
0.32,4.968839,
0.321,4.971141,
0.322,4.970154,
0.323,4.96851,
0.324,4.970812,
0.325,4.972127,
0.326,4.971798,
0.327,4.968839,
0.328,4.969168,
0.329,4.969825,
0.33,4.969825,
0.331,4.968181,
0.332,4.967853,
0.333,4.969168,
0.334,4.969825,
0.335,4.969168,
0.336,4.966537,
0.337,4.966866,
0.338,4.96851,
0.339,4.970154,
0.34,4.96851,
0.341,4.96851,
0.342,4.968839,
0.343,4.970812,
0.344,4.96851,
0.345,4.967195,
0.346,4.966866,
0.347,4.969168,
0.348,4.970812,
0.349,4.969497,
0.35,4.969497,
0.351,4.970154,
0.352,4.970812,
0.353,4.970812,
0.354,4.968839,
0.355,4.968839,
0.356,4.972127,
0.357,4.971469,
0.358,4.969497,
0.359,4.968839,
0.36,4.970483,
0.361,4.969825,
0.362,4.96851,
0.363,4.967524,
0.364,4.96851,
0.365,4.970483,
0.366,4.970154,
0.367,4.96851,
0.368,4.968181,
0.369,4.967195,
0.37,4.967195,
0.371,4.965551,
0.372,4.965551,
0.373,4.967524,
0.374,4.966866,
0.375,4.966209,
0.376,4.966209,
0.377,4.966866,
0.378,4.966537,
0.379,4.967524,
0.38,4.965551,
0.381,4.966537,
0.382,4.967524,
0.383,4.968839,
0.384,4.970483,
0.385,4.96851,
0.386,4.967195,
0.387,4.969497,
0.388,4.970812,
0.389,4.969168,
0.39,4.969497,
0.391,4.972785,
0.392,4.972127,
0.393,4.973113,
0.394,4.969825,
0.395,4.970154,
0.396,4.971141,
0.397,4.972127,
0.398,4.970154,
0.399,4.970483,
0.4,4.971798,
0.401,4.971798,
0.402,4.969497,
0.403,4.968181,
0.404,4.969825,
0.405,4.970812,
0.406,4.969168,
0.407,4.968181,
0.408,4.96851,
0.409,4.969168,
0.41,4.967853,
0.411,4.964893,
0.412,4.96588,
0.413,4.966866,
0.414,4.966866,
0.415,4.966209,
0.416,4.966209,
0.417,4.967853,
0.418,4.967853,
0.419,4.965551,
0.42,4.965222,
0.421,4.966209,
0.422,4.966866,
0.423,4.967195,
0.424,4.966209,
0.425,4.967853,
0.426,4.969168,
0.427,4.969168,
0.428,4.967853,
0.429,4.967853,
0.43,4.969825,
0.431,4.970812,
0.432,4.970812,
0.433,4.969168,
0.434,4.970483,
0.435,4.971141,
0.436,4.971141,
0.437,4.970154,
0.438,4.969497,
0.439,4.970483,
0.44,4.971469,
0.441,4.971798,
0.442,4.970154,
0.443,4.969825,
0.444,4.969497,
0.445,4.970483,
0.446,4.968181,
0.447,4.967195,
0.448,4.968181,
0.449,4.969825,
0.45,4.969825,
0.451,4.968181,
0.452,4.967195,
0.453,4.96851,
0.454,4.969168,
0.455,4.967524,
0.456,4.967853,
0.457,4.968181,
0.458,4.970812,
0.459,4.969825,
0.46,4.967195,
0.461,4.966866,
0.462,4.969168,
0.463,4.970483,
0.464,4.969168,
0.465,4.969168,
0.466,4.969497,
0.467,4.971798,
0.468,4.971798,
0.469,4.96851,
0.47,4.968839,
0.471,4.969825,
0.472,4.971141,
0.473,4.970483,
0.474,4.970154,
0.475,4.970154,
0.476,4.969825,
0.477,4.970154,
0.478,4.968181,
0.479,4.967524,
0.48,4.969168,
0.481,4.968839,
0.482,4.969497,
0.483,4.967853,
0.484,4.967524,
0.485,4.96851,
0.486,4.967524,
0.487,4.966537,
0.488,4.965222,
0.489,4.965551,
0.49,4.968181,
0.491,4.968839,
0.492,4.967195,
0.493,4.967195,
0.494,4.966866,
0.495,4.968181,
0.496,4.966209,
0.497,4.966209,
0.498,4.967853,
0.499,4.969497,
0.5,4.968181,
0.501,4.968839,
0.502,4.969168,
0.503,4.969168,
0.504,4.970812,
0.505,4.969497,
0.506,4.969825,
0.507,4.971469,
0.508,4.973113,
0.509,4.972456,
0.51,4.970812,
0.511,4.969168,
0.512,4.970483,
0.513,4.972127,
0.514,4.971469,
0.515,4.970812,
0.516,4.971469,
0.517,4.972456,
0.518,4.971798,
0.519,4.969168,
0.52,4.96851,
0.521,4.970483,
0.522,4.969497,
0.523,4.967853,
0.524,4.967853,
0.525,4.969497,
0.526,4.968181,
0.527,4.966537,
0.528,4.965222,
0.529,4.96588,
0.53,4.967195,
0.531,4.967195,
0.532,4.966537,
0.533,4.966866,
0.534,4.967195,
0.535,4.967853,
0.536,4.966537,
0.537,4.965551,
0.538,4.96588,
0.539,4.967195,
0.54,4.967853,
0.541,4.967853,
0.542,4.967853,
0.543,4.970483,
0.544,4.969825,
0.545,4.968839,
0.546,4.969168,
0.547,4.969497,
0.548,4.970483,
0.549,4.970812,
0.55,4.969497,
0.551,4.969168,
0.552,4.970812,
0.553,4.969825,
0.554,4.970154,
0.555,4.967853,
0.556,4.968839,
0.557,4.971141,
0.558,4.969825,
0.559,4.968839,
0.56,4.96851,
0.561,4.967853,
0.562,4.967853,
0.563,4.967195,
0.564,4.966209,
0.565,4.966866,
0.566,4.969168,
0.567,4.970154,
0.568,4.967853,
0.569,4.96588,
0.57,4.967524,
0.571,4.969168,
0.572,4.96851,
0.573,4.966866,
0.574,4.969168,
0.575,4.970154,
0.576,4.970483,
0.577,4.967853,
0.578,4.967853,
0.579,4.96851,
0.58,4.970483,
0.581,4.970483,
0.582,4.970154,
0.583,4.971141,
0.584,4.972127,
0.585,4.971141,
0.586,4.969497,
0.587,4.96851,
0.588,4.969825,
0.589,4.971469,
0.59,4.969825,
0.591,4.970154,
0.592,4.970812,
0.593,4.970483,
0.594,4.970154,
0.595,4.967853,
0.596,4.967195,
0.597,4.969825,
0.598,4.969825,
0.599,4.967524,
0.6,4.967524,
0.601,4.966866,
0.602,4.967524,
0.603,4.967853,
0.604,4.964893,
0.605,4.965551,
0.606,4.967195,
0.607,4.968181,
0.608,4.966866,
0.609,4.96588,
0.61,4.967524,
0.611,4.967195,
0.612,4.966866,
0.613,4.964893,
0.614,4.966537,
0.615,4.967853,
0.616,4.968839,
0.617,4.969168,
0.618,4.96851,
0.619,4.969168,
0.62,4.970154,
0.621,4.970483,
0.622,4.969497,
0.623,4.970812,
0.624,4.972127,
0.625,4.972127,
0.626,4.971141,
0.627,4.969825,
0.628,4.970812,
0.629,4.971141,
0.63,4.971798,
0.631,4.969825,
0.632,4.971469,
0.633,4.972456,
0.634,4.972456,
0.635,4.969825,
0.636,4.968181,
0.637,4.969168,
0.638,4.969825,
0.639,4.967853,
0.64,4.967853,
0.641,4.968839,
0.642,4.969497,
0.643,4.969168,
0.644,4.96588,
0.645,4.966209,
0.646,4.96851,
0.647,4.96851,
0.648,4.967853,
0.649,4.967524,
0.65,4.968181,
0.651,4.969168,
0.652,4.967195,
0.653,4.966537,
0.654,4.966866,
0.655,4.96851,
0.656,4.969168,
0.657,4.968839,
0.658,4.96851,
0.659,4.970483,
0.66,4.970483,
0.661,4.967195,
0.662,4.968181,
0.663,4.969168,
0.664,4.970483,
0.665,4.970483,
0.666,4.968181,
0.667,4.970483,
0.668,4.970483,
0.669,4.969168,
0.67,4.96851,
0.671,4.968181,
0.672,4.969825,
0.673,4.970483,
0.674,4.968839,
0.675,4.966209,
0.676,4.967524,
0.677,4.968181,
0.678,4.967195,
0.679,4.96588,
0.68,4.964893,
0.681,4.966866,
0.682,4.968839,
0.683,4.966866,
0.684,4.966866,
0.685,4.966866,
0.686,4.967524,
0.687,4.967195,
0.688,4.964893,
0.689,4.966209,
0.69,4.967853,
0.691,4.969497,
0.692,4.968839,
0.693,4.967524,
0.694,4.968839,
0.695,4.969825,
0.696,4.970483,
0.697,4.969825,
0.698,4.970154,
0.699,4.972127,
0.7,4.973113,
0.701,4.971798,
0.702,4.969825,
0.703,4.969825,
0.704,4.971798,
0.705,4.971141,
0.706,4.968839,
0.707,4.970483,
0.708,4.972785,
0.709,4.971798,
0.71,4.970483,
0.711,4.967524,
0.712,4.968181,
0.713,4.970483,
0.714,4.969825,
0.715,4.96851,
0.716,4.967524,
0.717,4.967524,
0.718,4.969168,
0.719,4.966866,
0.72,4.96588,
0.721,4.96588,
0.722,4.967853,
0.723,4.968839,
0.724,4.967524,
0.725,4.96588,
0.726,4.967853,
0.727,4.967195,
0.728,4.967195,
0.729,4.96588,
0.73,4.965551,
0.731,4.967853,
0.732,4.969497,
0.733,4.968181,
0.734,4.968181,
0.735,4.968839,
0.736,4.969168,
0.737,4.970154,
0.738,4.968839,
0.739,4.968839,
0.74,4.971141,
0.741,4.970483,
0.742,4.969497,
0.743,4.969168,
0.744,4.969497,
0.745,4.969497,
0.746,4.969168,
0.747,4.967524,
0.748,4.969825,
0.749,4.970154,
0.75,4.968839,
0.751,4.968181,
0.752,4.966209,
0.753,4.967524,
0.754,4.967853,
0.755,4.966537,
0.756,4.965222,
0.757,4.967195,
0.758,4.96851,
0.759,4.968181,
0.76,4.966209,
0.761,4.965222,
0.762,4.966866,
0.763,4.96851,
0.764,4.966866,
0.765,4.966209,
0.766,4.967524,
0.767,4.969825,
0.768,4.969168,
0.769,4.967524,
0.77,4.967195,
0.771,4.969825,
0.772,4.971469,
0.773,4.969168,
0.774,4.970154,
0.775,4.971798,
0.776,4.973113,
0.777,4.970812,
0.778,4.969168,
0.779,4.970483,
0.78,4.972456,
0.781,4.971469,
0.782,4.971141,
0.783,4.970812,
0.784,4.971141,
0.785,4.971798,
0.786,4.969168,
0.787,4.969168,
0.788,4.970483,
0.789,4.970483,
0.79,4.969168,
0.791,4.96851,
0.792,4.968181,
0.793,4.969168,
0.794,4.966866,
0.795,4.965222,
0.796,4.96588,
0.797,4.967195,
0.798,4.967853,
0.799,4.965551,
0.8,4.966866,
0.801,4.967195,
0.802,4.967195,
0.803,4.966537,
0.804,4.96588,
0.805,4.965551,
0.806,4.968181,
0.807,4.967524,
0.808,4.967195,
0.809,4.967195,
0.81,4.967853,
0.811,4.969825,
0.812,4.969168,
0.813,4.967853,
0.814,4.96851,
0.815,4.969825,
0.816,4.970154,
0.817,4.970154,
0.818,4.969497,
0.819,4.96851,
0.82,4.970483,
0.821,4.969497,
0.822,4.96851,
0.823,4.969168,
0.824,4.970483,
0.825,4.971141,
0.826,4.969497,
0.827,4.96851,
0.828,4.96851,
0.829,4.969168,
0.83,4.967524,
0.831,4.967195,
0.832,4.967853,
0.833,4.969825,
0.834,4.969168,
0.835,4.966866,
0.836,4.966537,
0.837,4.968181,
0.838,4.969497,
0.839,4.967853,
0.84,4.967195,
0.841,4.969168,
0.842,4.969825,
0.843,4.969168,
0.844,4.967853,
0.845,4.966209,
0.846,4.968839,
0.847,4.970812,
0.848,4.969497,
0.849,4.970154,
0.85,4.971141,
0.851,4.972456,
0.852,4.971469,
0.853,4.970483,
0.854,4.969825,
0.855,4.972456,
0.856,4.972456,
0.857,4.971141,
0.858,4.970812,
0.859,4.971141,
0.86,4.972127,
0.861,4.970812,
0.862,4.968839,
0.863,4.969168,
0.864,4.970483,
0.865,4.971141,
0.866,4.969497,
0.867,4.966866,
0.868,4.968181,
0.869,4.967853,
0.87,4.96588,
0.871,4.965222,
0.872,4.96588,
0.873,4.967524,
0.874,4.967524,
0.875,4.966537,
0.876,4.966866,
0.877,4.966537,
0.878,4.966866,
0.879,4.96588,
0.88,4.96588,
0.881,4.966209,
0.882,4.96851,
0.883,4.96851,
0.884,4.968181,
0.885,4.966866,
0.886,4.967524,
0.887,4.967853,
0.888,4.968181,
0.889,4.968181,
0.89,4.969497,
0.891,4.970483,
0.892,4.971141,
0.893,4.969825,
0.894,4.968181,
0.895,4.968839,
0.896,4.970154,
0.897,4.970154,
0.898,4.968839,
0.899,4.969497,
0.9,4.971141,
0.901,4.972456,
0.902,4.968839,
0.903,4.969168,
0.904,4.969497,
0.905,4.969825,
0.906,4.969497,
0.907,4.968181,
0.908,4.968839,
0.909,4.969168,
0.91,4.969825,
0.911,4.967853,
0.912,4.967195,
0.913,4.967195,
0.914,4.968181,
0.915,4.969497,
0.916,4.970154,
0.917,4.968181,
0.918,4.967853,
0.919,4.96851,
0.92,4.967853,
0.921,4.967195,
0.922,4.967853,
0.923,4.969497,
0.924,4.970483,
0.925,4.969168,
0.926,4.969825,
0.927,4.970812,
0.928,4.970483,
0.929,4.970154,
0.93,4.968839,
0.931,4.96851,
0.932,4.970483,
0.933,4.971469,
0.934,4.969825,
0.935,4.968839,
0.936,4.970483,
0.937,4.970154,
0.938,4.968839,
0.939,4.968181,
0.94,4.969825,
0.941,4.971141,
0.942,4.969497,
0.943,4.968839,
0.944,4.966866,
0.945,4.967853,
0.946,4.968181,
0.947,4.96588,
0.948,4.965551,
0.949,4.968181,
0.95,4.969168,
0.951,4.967195,
0.952,4.966209,
0.953,4.966209,
0.954,4.967524,
0.955,4.967853,
0.956,4.966537,
0.957,4.967853,
0.958,4.969168,
0.959,4.970483,
0.96,4.967853,
0.961,4.966209,
0.962,4.967853,
0.963,4.971141,
0.964,4.970812,
0.965,4.970483,
0.966,4.970812,
0.967,4.972456,
0.968,4.973442,
0.969,4.971141,
0.97,4.969825,
0.971,4.971469,
0.972,4.972456,
0.973,4.971798,
0.974,4.970812,
0.975,4.970812,
0.976,4.973113,
0.977,4.971798,
0.978,4.969825,
0.979,4.969168,
0.98,4.970154,
0.981,4.971798,
0.982,4.970483,
0.983,4.969168,
0.984,4.968839,
0.985,4.969168,
0.986,4.969168,
0.987,4.967524,
0.988,4.966866,
0.989,4.96851,
0.99,4.968839,
0.991,4.967853,
0.992,4.967524,
0.993,4.968181,
0.994,4.967524,
0.995,4.966866,
0.996,4.96588,
0.997,4.966537,
0.998,4.968181,
0.999,4.968181,
1,4.968181,
1.001,4.967853,
1.002,4.967853,
1.003,4.969497,
1.004,4.968181,
1.005,4.967853,
1.006,4.969168,
1.007,4.969497,
1.008,4.970812,
1.009,4.969825,
1.01,4.968839,
1.011,4.968839,
1.012,4.969497,
1.013,4.969497,
1.014,4.96851,
1.015,4.968181,
1.016,4.970483,
1.017,4.971469,
1.018,4.968839,
1.019,4.966866,
1.02,4.968839,
1.021,4.969168,
1.022,4.967853,
1.023,4.966866,
1.024,4.967853,
1.025,4.968839,
1.026,4.968839,
1.027,4.96588,
1.028,4.96588,
1.029,4.968181,
1.03,4.969497,
1.031,4.969168,
1.032,4.968181,
1.033,4.967853,
1.034,4.969497,
1.035,4.969825,
1.036,4.967524,
1.037,4.966866,
1.038,4.969168,
1.039,4.970483,
1.04,4.970812,
1.041,4.969497,
1.042,4.971798,
1.043,4.972127,
1.044,4.970812,
1.045,4.969825,
1.046,4.969497,
1.047,4.971798,
1.048,4.971798,
1.049,4.969497,
1.05,4.969825,
1.051,4.971469,
1.052,4.970812,
1.053,4.969168,
1.054,4.968839,
1.055,4.969168,
1.056,4.971469,
1.057,4.970483,
1.058,4.968181,
1.059,4.968839,
1.06,4.969497,
1.061,4.967195,
1.062,4.966537,
1.063,4.966209,
1.064,4.967195,
1.065,4.968181,
1.066,4.966866,
1.067,4.966537,
1.068,4.967524,
1.069,4.966866,
1.07,4.966537,
1.071,4.966537,
1.072,4.965222,
1.073,4.967853,
1.074,4.967524,
1.075,4.967853,
1.076,4.96851,
1.077,4.965222,
1.078,4.967853,
1.079,4.969497,
1.08,4.969497,
1.081,4.968839,
1.082,4.969168,
1.083,4.970483,
1.084,4.972785,
1.085,4.971798,
1.086,4.96851,
1.087,4.969497,
1.088,4.970812,
1.089,4.970812,
1.09,4.970483,
1.091,4.970483,
1.092,4.972127,
1.093,4.972456,
1.094,4.969168,
1.095,4.969168,
1.096,4.969497,
1.097,4.970812,
1.098,4.969825,
1.099,4.968181,
1.1,4.955687,
1.101,0.091198,
1.102,0.087582,
1.103,0.086595,
1.104,0.087582,
1.105,0.086924,
1.106,0.086595,
1.107,0.086595,
1.108,0.086924,
1.109,0.086924,
1.11,0.086924,
1.111,0.086924,
1.112,0.086924,
1.113,0.087253,
1.114,0.086595,
1.115,0.087582,
1.116,0.087253,
1.117,0.087253,
1.118,0.087253,
1.119,0.087253,
1.12,0.086924,
1.121,0.086595,
1.122,0.086924,
1.123,0.086924,
1.124,0.086595,
1.125,0.086924,
1.126,0.086924,
1.127,0.086924,
1.128,0.086924,
1.129,0.086595,
1.13,0.087253,
1.131,0.086595,
1.132,0.087253,
1.133,0.086924,
1.134,0.086924,
1.135,0.086924,
1.136,0.097117,
1.137,4.616701,
1.138,4.967195,
1.139,4.96588,
1.14,4.966537,
1.141,4.967853,
1.142,4.96851,
1.143,4.967195,
1.144,4.964893,
1.145,4.965551,
1.146,4.967853,
1.147,4.968181,
1.148,4.96588,
1.149,4.967524,
1.15,4.969825,
1.151,4.970154,
1.152,4.966866,
1.153,4.96588,
1.154,4.967853,
1.155,4.971141,
1.156,4.970483,
1.157,4.969825,
1.158,4.970483,
1.159,4.971798,
1.16,4.972456,
1.161,4.970154,
1.162,4.969825,
1.163,4.971141,
1.164,4.971798,
1.165,4.973442,
1.166,4.971798,
1.167,4.969825,
1.168,4.972127,
1.169,4.971141,
1.17,4.970483,
1.171,4.969168,
1.172,4.969825,
1.173,4.971141,
1.174,4.970812,
1.175,4.969168,
1.176,4.969168,
1.177,4.969825,
1.178,4.968839,
1.179,4.967524,
1.18,4.967195,
1.181,4.96851,
1.182,4.969825,
1.183,4.969168,
1.184,4.967853,
1.185,4.967524,
1.186,4.967853,
1.187,4.969168,
1.188,4.967524,
1.189,4.967853,
1.19,4.968181,
1.191,4.969825,
1.192,4.970483,
1.193,4.96851,
1.194,4.967853,
1.195,4.970483,
1.196,4.971141,
1.197,4.969497,
1.198,4.969825,
1.199,4.969497,
1.2,4.971798,
1.201,4.971469,
1.202,4.968181,
1.203,4.967853,
1.204,4.96851,
1.205,4.970812,
1.206,4.970483,
1.207,4.967853,
1.208,4.969825,
1.209,4.970483,
1.21,4.969825,
1.211,4.967195,
1.212,4.966209,
1.213,4.968181,
1.214,4.968839,
1.215,4.966866,
1.216,4.966537,
1.217,4.967524,
1.218,4.967853,
1.219,4.96588,
1.22,4.965222,
1.221,4.966209,
1.222,4.968181,
1.223,4.967195,
1.224,4.966537,
1.225,4.968181,
1.226,4.968839,
1.227,4.968181,
1.228,4.966209,
1.229,4.966866,
1.23,4.96851,
1.231,4.969497,
1.232,4.969497,
1.233,4.969497,
1.234,4.970483,
1.235,4.971798,
1.236,4.970483,
1.237,4.969825,
1.238,4.970154,
1.239,4.971141,
1.24,4.971469,
1.241,4.971798,
1.242,4.971141,
1.243,4.971798,
1.244,4.971141,
1.245,4.971469,
1.246,4.970154,
1.247,4.969497,
1.248,4.971141,
1.249,4.972456,
1.25,4.970812,
1.251,4.969168,
1.252,4.968839,
1.253,4.969168,
1.254,4.96851,
1.255,4.966866,
1.256,4.967195,
1.257,4.969497,
1.258,4.970154,
1.259,4.96851,
1.26,4.967195,
1.261,4.967195,
1.262,4.96851,
1.263,4.967524,
1.264,4.966866,
1.265,4.966866,
1.266,4.968839,
1.267,4.969168,
1.268,4.967524,
1.269,4.965551,
1.27,4.967524,
1.271,4.969497,
1.272,4.968181,
1.273,4.968839,
1.274,4.96851,
1.275,4.970812,
1.276,4.971798,
1.277,4.968181,
1.278,4.968181,
1.279,4.968181,
1.28,4.969825,
1.281,4.970483,
1.282,4.967853,
1.283,4.96851,
1.284,4.970483,
1.285,4.970154,
1.286,4.969497,
1.287,4.967524,
1.288,4.967195,
1.289,4.969497,
1.29,4.967853,
1.291,4.967524,
1.292,4.967524,
1.293,4.967524,
1.294,4.967195,
1.295,4.967195,
1.296,4.96588,
1.297,4.966866,
1.298,4.968181,
1.299,4.969497,
1.3,4.968839,
1.301,4.966866,
1.302,4.968181,
1.303,4.96851,
1.304,4.967195,
1.305,4.967853,
1.306,4.967853,
1.307,4.970483,
1.308,4.971141,
1.309,4.970812,
1.31,4.970483,
1.311,4.970154,
1.312,4.971141,
1.313,4.970154,
1.314,4.970483,
1.315,4.971141,
1.316,4.973113,
1.317,4.972456,
1.318,4.971141,
1.319,4.970483,
1.32,4.970812,
1.321,4.971798,
1.322,4.970483,
1.323,4.970483,
1.324,4.971798,
1.325,4.971798,
1.326,4.971798,
1.327,4.968839,
1.328,4.967853,
1.329,4.968839,
1.33,4.969497,
1.331,4.967853,
1.332,4.967853,
1.333,4.967524,
1.334,4.96851,
1.335,4.967195,
1.336,4.964565,
1.337,4.96588,
1.338,4.967195,
1.339,4.96851,
1.34,4.966537,
1.341,4.96588,
1.342,4.967195,
1.343,4.968839,
1.344,4.965222,
1.345,4.965551,
1.346,4.966537,
1.347,4.967853,
1.348,4.969168,
1.349,4.968181,
1.35,4.968839,
1.351,4.971141,
1.352,4.969825,
1.353,4.968839,
1.354,4.968181,
1.355,4.969825,
1.356,4.970812,
1.357,4.970154,
1.358,4.969825,
1.359,4.970483,
1.36,4.971798,
1.361,4.970812,
1.362,4.969497,
1.363,4.96851,
1.364,4.970812,
1.365,4.970812,
1.366,4.971469,
1.367,4.969497,
1.368,4.967853,
1.369,4.967853,
1.37,4.969168,
1.371,4.967524,
1.372,4.966537,
1.373,4.968181,
1.374,4.969497,
1.375,4.969168,
1.376,4.967524,
1.377,4.966537,
1.378,4.967524,
1.379,4.96851,
1.38,4.968181,
1.381,4.96588,
1.382,4.967524,
1.383,4.969497,
1.384,4.969168,
1.385,4.967853,
1.386,4.966537,
1.387,4.969497,
1.388,4.969825,
1.389,4.96851,
1.39,4.96851,
1.391,4.969825,
1.392,4.970812,
1.393,4.970812,
1.394,4.967524,
1.395,4.968181,
1.396,4.969825,
1.397,4.969825,
1.398,4.969168,
1.399,4.968181,
1.4,4.970483,
1.401,4.971141,
1.402,4.967853,
1.403,4.967195,
1.404,4.967524,
1.405,4.968839,
1.406,4.96851,
1.407,4.966866,
1.408,4.967195,
1.409,4.969497,
1.41,4.968181,
1.411,4.966537,
1.412,4.966537,
1.413,4.966537,
1.414,4.969168,
1.415,4.968839,
1.416,4.96851,
1.417,4.969168,
1.418,4.969168,
1.419,4.968181,
1.42,4.968839,
1.421,4.967853,
1.422,4.967853,
1.423,4.970812,
1.424,4.972127,
1.425,4.970483,
1.426,4.971141,
1.427,4.970812,
1.428,4.971141,
1.429,4.972127,
1.43,4.971141,
1.431,4.970483,
1.432,4.971798,
1.433,4.972456,
1.434,4.971141,
1.435,4.969168,
1.436,4.968839,
1.437,4.970812,
1.438,4.970154,
1.439,4.969825,
1.44,4.970812,
1.441,4.972456,
1.442,4.970812,
1.443,4.968839,
1.444,4.967524,
1.445,4.96851,
1.446,4.968839,
1.447,4.967524,
1.448,4.966866,
1.449,4.967524,
1.45,4.969168,
1.451,4.970154,
1.452,4.966209,
1.453,4.96588,
1.454,4.967853,
1.455,4.968839,
1.456,4.967524,
1.457,4.967195,
1.458,4.968181,
1.459,4.969168,
1.46,4.968181,
1.461,4.96588,
1.462,4.966866,
1.463,4.969168,
1.464,4.969825,
1.465,4.969168,
1.466,4.969168,
1.467,4.968839,
1.468,4.970154,
1.469,4.969168,
1.47,4.968839,
1.471,4.968181,
1.472,4.96851,
1.473,4.969825,
1.474,4.970154,
1.475,4.968839,
1.476,4.96851,
1.477,4.968839,
1.478,4.969497,
1.479,4.968839,
1.48,4.967524,
1.481,4.967524,
1.482,4.968181,
1.483,4.968839,
1.484,4.967524,
1.485,4.96588,
1.486,4.965222,
1.487,4.967524,
1.488,4.966537,
1.489,4.965222,
1.49,4.967524,
1.491,4.968181,
1.492,4.96851,
1.493,4.96588,
1.494,4.966537,
1.495,4.967524,
1.496,4.968839,
1.497,4.966537,
1.498,4.967853,
1.499,4.970154,
1.5,4.970483,
1.501,4.970154,
1.502,4.969168,
1.503,4.970483,
1.504,4.972127,
1.505,4.970812,
1.506,4.970483,
1.507,4.972456,
1.508,4.972127,
1.509,4.972456,
1.51,4.970812,
1.511,4.970483,
1.512,4.971141,
1.513,4.971141,
1.514,4.970154,
1.515,4.970154,
1.516,4.971141,
1.517,4.972785,
1.518,4.970483,
1.519,4.967853,
1.52,4.967853,
1.521,4.968839,
1.522,4.96851,
1.523,4.967853,
1.524,4.967853,
1.525,4.969497,
1.526,4.969168,
1.527,4.966537,
1.528,4.96588,
1.529,4.967524,
1.53,4.968181,
1.531,4.96851,
1.532,4.966209,
1.533,4.967524,
1.534,4.967853,
1.535,4.967524,
1.536,4.966209,
1.537,4.965551,
1.538,4.967524,
1.539,4.969168,
1.54,4.969168,
1.541,4.968839,
1.542,4.96851,
1.543,4.970154,
1.544,4.969168,
1.545,4.96851,
1.546,4.967524,
1.547,4.969497,
1.548,4.970154,
1.549,4.970483,
1.55,4.968839,
1.551,4.969168,
1.552,4.970154,
1.553,4.969825,
1.554,4.968181,
1.555,4.969168,
1.556,4.969497,
1.557,4.970483,
1.558,4.968839,
1.559,4.968181,
1.56,4.96851,
1.561,4.968181,
1.562,4.96851,
1.563,4.966866,
1.564,4.966537,
1.565,4.968839,
1.566,4.969825,
1.567,4.970154,
1.568,4.967853,
1.569,4.966537,
1.57,4.968181,
1.571,4.970154,
1.572,4.967195,
1.573,4.966537,
1.574,4.970154,
1.575,4.969497,
1.576,4.970483,
1.577,4.96851,
1.578,4.967524,
1.579,4.970812,
1.58,4.971798,
1.581,4.970812,
1.582,4.971141,
1.583,4.971798,
1.584,4.972456,
1.585,4.970154,
1.586,4.968839,
1.587,4.970483,
1.588,4.971798,
1.589,4.971141,
1.59,4.970812,
1.591,4.971141,
1.592,4.971141,
1.593,4.972127,
1.594,4.96851,
1.595,4.967524,
1.596,4.968839,
1.597,4.969168,
1.598,4.968181,
1.599,4.967853,
1.6,4.966866,
1.601,4.967853,
1.602,4.966866,
1.603,4.965222,
1.604,4.964893,
1.605,4.966866,
1.606,4.966537,
1.607,4.96588,
1.608,4.966537,
1.609,4.967524,
1.61,4.966866,
1.611,4.966537,
1.612,4.965222,
1.613,4.965222,
1.614,4.967195,
1.615,4.968839,
1.616,4.967853,
1.617,4.96851,
1.618,4.96851,
1.619,4.969168,
1.62,4.969497,
1.621,4.968181,
1.622,4.96851,
1.623,4.970483,
1.624,4.970483,
1.625,4.970154,
1.626,4.968839,
1.627,4.969825,
1.628,4.970154,
1.629,4.969825,
1.63,4.969168,
1.631,4.969497,
1.632,4.972456,
1.633,4.972127,
1.634,4.969497,
1.635,4.968839,
1.636,4.968839,
1.637,4.969497,
1.638,4.967853,
1.639,4.967195,
1.64,4.968181,
1.641,4.970483,
1.642,4.969168,
1.643,4.967524,
1.644,4.966866,
1.645,4.967853,
1.646,4.969168,
1.647,4.967853,
1.648,4.966866,
1.649,4.969825,
1.65,4.970154,
1.651,4.968839,
1.652,4.967195,
1.653,4.967195,
1.654,4.969497,
1.655,4.970812,
1.656,4.969168,
1.657,4.970483,
1.658,4.972127,
1.659,4.971798,
1.66,4.969497,
1.661,4.969168,
1.662,4.970154,
1.663,4.970812,
1.664,4.969825,
1.665,4.96851,
1.666,4.970483,
1.667,4.970812,
1.668,4.970483,
1.669,4.967853,
1.67,4.967853,
1.671,4.968839,
1.672,4.96851,
1.673,4.967853,
1.674,4.966866,
1.675,4.967195,
1.676,4.968839,
1.677,4.966537,
1.678,4.965551,
1.679,4.965222,
1.68,4.966209,
1.681,4.967853,
1.682,4.967195,
1.683,4.966537,
1.684,4.967195,
1.685,4.967853,
1.686,4.967524,
1.687,4.966209,
1.688,4.965222,
1.689,4.967524,
1.69,4.96851,
1.691,4.968181,
1.692,4.969168,
1.693,4.968839,
1.694,4.968839,
1.695,4.970154,
1.696,4.968839,
1.697,4.970154,
1.698,4.971469,
1.699,4.972456,
1.7,4.971798,
1.701,4.971141,
1.702,4.970812,
1.703,4.970812,
1.704,4.970154,
1.705,4.969825,
1.706,4.970812,
1.707,4.971469,
1.708,4.972456,
1.709,4.970812,
1.71,4.969497,
1.711,4.969497,
1.712,4.969825,
1.713,4.969497,
1.714,4.967853,
1.715,4.966866,
1.716,4.969497,
1.717,4.970154,
1.718,4.968839,
1.719,4.966209,
1.72,4.966537,
1.721,4.96851,
1.722,4.969168,
1.723,4.966866,
1.724,4.967853,
1.725,4.968839,
1.726,4.969168,
1.727,4.967195,
1.728,4.96588,
1.729,4.966537,
1.73,4.96851,
1.731,4.969825,
1.732,4.96851,
1.733,4.96851,
1.734,4.969168,
1.735,4.970154,
1.736,4.969168,
1.737,4.968181,
1.738,4.969168,
1.739,4.970483,
1.74,4.970812,
1.741,4.969497,
1.742,4.96851,
1.743,4.970154,
1.744,4.969168,
1.745,4.968181,
1.746,4.967853,
1.747,4.968181,
1.748,4.970154,
1.749,4.969497,
1.75,4.967524,
1.751,4.968181,
1.752,4.966866,
1.753,4.967195,
1.754,4.96588,
1.755,4.965222,
1.756,4.966537,
1.757,4.968181,
1.758,4.967853,
1.759,4.966866,
1.76,4.965551,
1.761,4.967195,
1.762,4.968181,
1.763,4.966537,
1.764,4.966537,
1.765,4.968839,
1.766,4.969497,
1.767,4.971141,
1.768,4.969168,
1.769,4.967524,
1.77,4.970483,
1.771,4.971469,
1.772,4.970154,
1.773,4.969497,
1.774,4.971469,
1.775,4.973113,
1.776,4.972456,
1.777,4.970154,
1.778,4.969825,
1.779,4.971469,
1.78,4.972127,
1.781,4.971469,
1.782,4.969497,
1.783,4.971798,
1.784,4.972785,
1.785,4.969825,
1.786,4.96851,
1.787,4.968181,
1.788,4.970483,
1.789,4.970154,
1.79,4.968839,
1.791,4.968839,
1.792,4.969168,
1.793,4.970154,
1.794,4.966866,
1.795,4.96588,
1.796,4.967195,
1.797,4.969168,
1.798,4.968839,
1.799,4.967853,
1.8,4.966866,
1.801,4.967853,
1.802,4.968839,
1.803,4.966866,
1.804,4.966209,
1.805,4.967853,
1.806,4.968839,
1.807,4.969168,
1.808,4.968181,
1.809,4.968181,
1.81,4.970812,
1.811,4.970483,
1.812,4.969168,
1.813,4.968839,
1.814,4.969168,
1.815,4.970812,
1.816,4.971141,
1.817,4.969168,
1.818,4.969497,
1.819,4.96851,
1.82,4.969497,
1.821,4.969497,
1.822,4.96851,
1.823,4.96851,
1.824,4.970483,
1.825,4.968839,
1.826,4.968181,
1.827,4.967853,
1.828,4.967524,
1.829,4.968181,
1.83,4.966537,
1.831,4.96588,
1.832,4.966866,
1.833,4.967524,
1.834,4.96851,
1.835,4.96588,
1.836,4.964893,
1.837,4.966866,
1.838,4.967853,
1.839,4.966209,
1.84,4.966209,
1.841,4.967853,
1.842,4.969825,
1.843,4.96851,
1.844,4.965551,
1.845,4.966866,
1.846,4.969497,
1.847,4.969825,
1.848,4.969497,
1.849,4.969825,
1.85,4.971469,
1.851,4.973113,
1.852,4.970483,
1.853,4.969497,
1.854,4.969497,
1.855,4.972127,
1.856,4.971469,
1.857,4.970154,
1.858,4.970154,
1.859,4.971798,
1.86,4.971798,
1.861,4.969825,
1.862,4.969168,
1.863,4.969825,
1.864,4.970483,
1.865,4.969825,
1.866,4.969497,
1.867,4.96851,
1.868,4.969497,
1.869,4.968181,
1.87,4.967524,
1.871,4.967195,
1.872,4.968839,
1.873,4.968839,
1.874,4.969825,
1.875,4.968181,
1.876,4.968839,
1.877,4.969168,
1.878,4.968839,
1.879,4.966866,
1.88,4.967195,
1.881,4.96851,
1.882,4.969497,
1.883,4.969168,
1.884,4.968181,
1.885,4.969825,
1.886,4.969825,
1.887,4.969825,
1.888,4.969168,
1.889,4.969168,
1.89,4.971798,
1.891,4.972127,
1.892,4.970154,
1.893,4.96851,
1.894,4.969825,
1.895,4.970154,
1.896,4.968839,
1.897,4.968181,
1.898,4.969497,
1.899,4.970154,
1.9,4.970154,
1.901,4.968839,
1.902,4.967853,
1.903,4.967524,
1.904,4.967195,
1.905,4.967524,
1.906,4.966866,
1.907,4.966537,
1.908,4.967853,
1.909,4.968839,
1.91,4.96588,
1.911,4.965551,
1.912,4.967853,
1.913,4.967853,
1.914,4.967524,
1.915,4.967853,
1.916,4.969168,
1.917,4.969825,
1.918,4.969497,
1.919,4.966537,
1.92,4.967853,
1.921,4.969825,
1.922,4.969825,
1.923,4.970483,
1.924,4.970483,
1.925,4.971469,
1.926,4.971798,
1.927,4.970154,
1.928,4.970812,
1.929,4.970154,
1.93,4.971798,
1.931,4.972127,
1.932,4.970483,
1.933,4.970483,
1.934,4.971798,
1.935,4.971469,
1.936,4.970154,
1.937,4.969168,
1.938,4.969825,
1.939,4.970812,
1.94,4.971469,
1.941,4.969168,
1.942,4.968181,
1.943,4.969168,
1.944,4.968839,
1.945,4.966866,
1.946,4.96588,
1.947,4.967195,
1.948,4.968181,
1.949,4.966866,
1.95,4.96588,
1.951,4.967195,
1.952,4.966866,
1.953,4.966866,
1.954,4.964236,
1.955,4.966209,
1.956,4.967853,
1.957,4.966537,
1.958,4.966866,
1.959,4.96588,
1.96,4.967853,
1.961,4.96851,
1.962,4.967853,
1.963,4.967524,
1.964,4.968839,
1.965,4.970154,
1.966,4.970483,
1.967,4.970483,
1.968,4.968181,
1.969,4.969168,
1.97,4.969825,
1.971,4.96851,
1.972,4.968181,
1.973,4.969825,
1.974,4.971141,
1.975,4.971469,
1.976,4.970483,
1.977,4.967853,
1.978,4.969168,
1.979,4.970154,
1.98,4.969168,
1.981,4.967195,
1.982,4.967524,
1.983,4.968839,
1.984,4.969825,
1.985,4.967524,
1.986,4.965551,
1.987,4.966209,
1.988,4.969168,
1.989,4.96851,
1.99,4.967195,
1.991,4.968181,
1.992,4.969825,
1.993,4.969825,
1.994,4.967195,
1.995,4.966866,
1.996,4.96851,
1.997,4.969825,
1.998,4.969825,
1.999,4.968839,
2,4.970812,
2.001,4.971798,
2.002,4.971469,
2.003,4.969497,
2.004,4.969168,
2.005,4.971469,
2.006,4.971798,
2.007,4.971469,
2.008,4.970154,
2.009,4.970812,
2.01,4.971798,
2.011,4.970154,
2.012,4.969825,
2.013,4.96851,
2.014,4.970483,
2.015,4.970483,
2.016,4.970483,
2.017,4.968181,
2.018,4.96851,
2.019,4.968181,
2.02,4.968181,
2.021,4.967195,
2.022,4.966866,
2.023,4.968181,
2.024,4.968181,
2.025,4.967195,
2.026,4.966866,
2.027,4.965551,
2.028,4.967195,
2.029,4.967195,
2.03,4.96588,
2.031,4.964893,
2.032,4.968181,
2.033,4.967853,
2.034,4.96851,
2.035,4.965551,
2.036,4.966537,
2.037,4.967524,
2.038,4.96851,
2.039,4.968839,
2.04,4.96851,
2.041,4.969497,
2.042,4.971469,
2.043,4.969168,
2.044,4.967195,
2.045,4.969825,
2.046,4.970483,
2.047,4.970154,
2.048,4.969497,
2.049,4.970154,
2.05,4.971798,
2.051,4.972127,
2.052,4.968181,
2.053,4.968839,
2.054,4.969825,
2.055,4.970483,
2.056,4.969825,
2.057,4.967853,
2.058,4.969168,
2.059,4.969825,
2.06,4.968839,
2.061,4.966866,
2.062,4.96588,
2.063,4.968181,
2.064,4.969497,
2.065,4.96851,
2.066,4.96851,
2.067,4.967853,
2.068,4.96851,
2.069,4.968839,
2.07,4.967853,
2.071,4.967195,
2.072,4.967524,
2.073,4.969497,
2.074,4.969497,
2.075,4.969168,
2.076,4.969497,
2.077,4.969497,
2.078,4.970812,
2.079,4.969497,
2.08,4.969497,
2.081,4.970154,
2.082,4.971798,
2.083,4.971469,
2.084,4.970154,
2.085,4.969825,
2.086,4.969825,
2.087,4.971141,
2.088,4.969825,
2.089,4.968181,
2.09,4.970483,
2.091,4.969825,
2.092,4.970154,
2.093,4.96851,
2.094,4.967195,
2.095,4.968839,
2.096,4.967524,
2.097,4.966537,
2.098,4.966537,
2.099,4.967524,
2.1,4.96851,
2.101,4.967195,
2.102,4.963907,
2.103,4.965222,
2.104,4.966537,
2.105,4.966537,
2.106,4.966209,
2.107,4.965551,
2.108,4.968181,
2.109,4.969168,
2.11,4.966209,
2.111,4.964565,
2.112,4.966209,
2.113,4.968181,
2.114,4.96851,
2.115,4.967853,
2.116,4.968839,
2.117,4.971469,
2.118,4.971469,
2.119,4.96851,
2.12,4.96851,
2.121,4.969497,
2.122,4.971469,
2.123,4.971141,
2.124,4.969497,
2.125,4.969497,
2.126,4.972127,
2.127,4.970812,
2.128,4.969825,
2.129,4.969168,
2.13,4.970154,
2.131,4.972456,
2.132,4.971798,
2.133,4.970154,
2.134,4.969168,
2.135,4.969497,
2.136,4.969168,
2.137,4.967853,
2.138,4.966537,
2.139,4.968839,
2.14,4.970483,
2.141,4.969497,
2.142,4.967853,
2.143,4.967195,
2.144,4.967524,
2.145,4.968181,
2.146,4.967524,
2.147,4.966209,
2.148,4.967195,
2.149,4.968839,
2.15,4.969497,
2.151,4.967524,
2.152,4.96588,
2.153,4.968839,
2.154,4.969497,
2.155,4.968181,
2.156,4.96851,
2.157,4.970483,
2.158,4.970812,
2.159,4.971141,
2.16,4.96851,
2.161,4.967524,
2.162,4.969168,
2.163,4.970812,
2.164,4.96851,
2.165,4.969497,
2.166,4.969825,
2.167,4.971141,
2.168,4.970483,
2.169,4.967195,
2.17,4.967524,
2.171,4.969825,
2.172,4.969168,
2.173,4.968181,
2.174,4.967195,
2.175,4.968181,
2.176,4.969497,
2.177,4.966866,
2.178,4.965551,
2.179,4.966866,
2.18,4.968181,
2.181,4.968839,
2.182,4.967524,
2.183,4.966866,
2.184,4.96851,
2.185,4.969497,
2.186,4.967853,
2.187,4.967195,
2.188,4.967195,
2.189,4.969497,
2.19,4.969825,
2.191,4.969497,
2.192,4.970154,
2.193,4.970483,
2.194,4.970483,
2.195,4.971141,
2.196,4.970154,
2.197,4.970483,
2.198,4.970812,
2.199,4.972456,
2.2,4.971798,
2.201,4.970154,
2.202,4.970483,
2.203,4.971141,
2.204,4.971141,
2.205,4.970154,
2.206,4.970154,
2.207,4.971469,
2.208,4.971469,
2.209,4.970154,
2.21,4.967853,
2.211,4.967853,
2.212,4.968181,
2.213,4.966537,
2.214,4.966209,
2.215,4.967853,
2.216,4.96851,
2.217,4.967853,
2.218,4.96588,
2.219,4.965222,
2.22,4.965551,
2.221,4.967195,
2.222,4.967195,
2.223,4.96588,
2.224,4.966537,
2.225,4.96851,
2.226,4.96851,
2.227,4.965551,
2.228,4.965551,
2.229,4.967195,
2.23,4.969497,
2.231,4.968839,
2.232,4.968839,
2.233,4.969497,
2.234,4.971798,
2.235,4.970154,
2.236,4.96851,
2.237,4.967853,
2.238,4.969497,
2.239,4.969825,
2.24,4.969825,
2.241,4.969168,
2.242,4.969825,
2.243,4.970812,
2.244,4.969497,
2.245,4.968181,
2.246,4.96851,
2.247,4.969825,
2.248,4.970483,
2.249,4.969497,
2.25,4.96851,
2.251,4.969497,
2.252,4.96851,
2.253,4.968839,
2.254,4.967524,
2.255,4.967853,
2.256,4.96851,
2.257,4.969825,
2.258,4.968839,
2.259,4.968181,
2.26,4.967524,
2.261,4.968181,
2.262,4.968839,
2.263,4.967524,
2.264,4.966866,
2.265,4.968181,
2.266,4.970154,
2.267,4.970812,
2.268,4.969825,
2.269,4.968839,
2.27,4.968839,
2.271,4.971469,
2.272,4.971798,
2.273,4.970154,
2.274,4.971141,
2.275,4.972127,
2.276,4.972456,
2.277,4.970154,
2.278,4.968839,
2.279,4.970154,
2.28,4.971469,
2.281,4.971141,
2.282,4.969825,
2.283,4.971141,
2.284,4.970812,
2.285,4.969825,
2.286,4.969825,
2.287,4.967195,
2.288,4.968181,
2.289,4.969168,
2.29,4.96851,
2.291,4.967195,
2.292,0.134599,
2.293,0.095801,
2.294,0.08791,
2.295,0.087253,
2.296,0.086924,
2.297,0.086924,
2.298,0.087253,
2.299,0.087253,
2.3,0.086924,
2.301,0.087582,
2.302,0.086924,
2.303,0.086924,
2.304,0.087253,
2.305,0.086924,
2.306,0.087253,
2.307,0.087253,
2.308,0.086924,
2.309,0.087253,
2.31,0.087253,
2.311,0.087582,
2.312,0.086924,
2.313,0.086924,
2.314,0.087253,
2.315,0.087253,
2.316,0.087253,
2.317,0.087253,
2.318,0.087253,
2.319,0.087253,
2.32,0.087253,
2.321,0.087253,
2.322,0.086924,
2.323,0.086595,
2.324,0.086924,
2.325,0.086595,
2.326,0.087253,
2.327,0.087582,
2.328,0.115529,
2.329,4.968839,
2.33,4.968181,
2.331,4.968181,
2.332,4.967853,
2.333,4.969497,
2.334,4.970154,
2.335,4.967524,
2.336,4.966866,
2.337,4.968181,
2.338,4.968839,
2.339,4.968839,
2.34,4.967853,
2.341,4.96851,
2.342,4.969825,
2.343,4.969497,
2.344,4.968181,
2.345,4.967853,
2.346,4.969168,
2.347,4.971469,
2.348,4.970483,
2.349,4.969497,
2.35,4.969497,
2.351,4.970812,
2.352,4.970154,
2.353,4.96851,
2.354,4.968181,
2.355,4.969825,
2.356,4.970483,
2.357,4.969497,
2.358,4.969497,
2.359,4.969168,
2.36,4.969825,
2.361,4.969825,
2.362,4.968181,
2.363,4.967195,
2.364,4.966537,
2.365,4.968181,
2.366,4.968839,
2.367,4.968181,
2.368,4.966537,
2.369,4.965551,
2.37,4.967195,
2.371,4.967195,
2.372,4.964893,
2.373,4.966537,
2.374,4.96851,
2.375,4.967853,
2.376,4.967853,
2.377,4.966209,
2.378,4.966537,
2.379,4.968839,
2.38,4.96851,
2.381,4.967195,
2.382,4.967853,
2.383,4.970483,
2.384,4.972127,
2.385,4.970154,
2.386,4.96851,
2.387,4.970483,
2.388,4.971798,
2.389,4.970812,
2.39,4.970812,
2.391,4.971141,
2.392,4.972127,
2.393,4.972456,
2.394,4.969168,
2.395,4.970483,
2.396,4.971469,
2.397,4.971798,
2.398,4.970483,
2.399,4.969825,
2.4,4.970154,
2.401,4.971469,
2.402,4.969825,
2.403,4.967853,
2.404,4.966537,
2.405,4.968839,
2.406,4.968839,
2.407,4.968181,
2.408,4.966537,
2.409,4.966537,
2.41,4.967853,
2.411,4.966866,
2.412,4.96588,
2.413,4.964565,
2.414,4.96588,
2.415,4.968181,
2.416,4.967853,
2.417,4.966866,
2.418,4.96588,
2.419,4.966866,
2.42,4.967524,
2.421,4.966537,
2.422,4.967524,
2.423,4.968839,
2.424,4.969825,
2.425,4.970812,
2.426,4.96851,
2.427,4.967853,
2.428,4.969168,
2.429,4.969497,
2.43,4.969497,
2.431,4.968839,
2.432,4.969168,
2.433,4.971141,
2.434,4.970154,
2.435,4.967524,
2.436,4.968181,
2.437,4.96851,
2.438,4.969168,
2.439,4.968839,
2.44,4.967524,
2.441,4.96851,
2.442,4.970812,
2.443,4.967524,
2.444,4.965551,
2.445,4.966209,
2.446,4.967195,
2.447,4.967853,
2.448,4.967524,
2.449,4.966537,
2.45,4.96851,
2.451,4.969497,
2.452,4.968181,
2.453,4.966209,
2.454,4.967195,
2.455,4.968839,
2.456,4.96851,
2.457,4.967524,
2.458,4.968181,
2.459,4.969168,
2.46,4.970483,
2.461,4.969497,
2.462,4.969168,
2.463,4.969825,
2.464,4.971141,
2.465,4.972785,
2.466,4.971469,
2.467,4.970812,
2.468,4.972127,
2.469,4.971469,
2.47,4.970812,
2.471,4.970154,
2.472,4.969825,
2.473,4.971798,
2.474,4.972456,
2.475,4.971141,
2.476,4.970483,
2.477,4.969825,
2.478,4.969825,
2.479,4.969825,
2.48,4.968839,
2.481,4.968181,
2.482,4.970483,
2.483,4.968839,
2.484,4.967853,
2.485,4.966209,
2.486,4.968839,
2.487,4.967853,
2.488,4.966866,
2.489,4.966866,
2.49,4.969168,
2.491,4.969497,
2.492,4.968181,
2.493,4.966866,
2.494,4.966537,
2.495,4.969168,
2.496,4.968181,
2.497,4.966537,
2.498,4.968181,
2.499,4.970483,
2.5,4.971141,
2.501,4.970483,
2.502,4.967524,
2.503,4.968181,
2.504,4.969497,
2.505,4.970812,
2.506,4.969497,
2.507,4.969497,
2.508,4.969168,
2.509,4.971141,
2.51,4.969497,
2.511,4.967853,
2.512,4.967195,
2.513,4.969168,
2.514,4.970483,
2.515,4.969497,
2.516,4.967524,
2.517,4.968839,
2.518,4.969168,
2.519,4.967853,
2.52,4.965222,
2.521,4.965551,
2.522,4.966866,
2.523,4.967853,
2.524,4.967195,
2.525,4.967195,
2.526,4.96851,
2.527,4.968181,
2.528,4.967195,
2.529,4.965551,
2.53,4.967524,
2.531,4.969168,
2.532,4.969497,
2.533,4.968181,
2.534,4.968839,
2.535,4.969497,
2.536,4.969825,
2.537,4.968181,
2.538,4.968839,
2.539,4.970812,
2.54,4.971469,
2.541,4.971469,
2.542,4.970812,
2.543,4.970154,
2.544,4.971141,
2.545,4.970483,
2.546,4.970483,
2.547,4.970483,
2.548,4.971141,
2.549,4.972456,
2.55,4.971469,
2.551,4.969825,
2.552,4.969168,
2.553,4.970812,
2.554,4.969825,
2.555,4.969497,
2.556,4.96851,
2.557,4.96851,
2.558,4.969497,
2.559,4.96851,
2.56,4.966537,
2.561,4.964893,
2.562,4.967524,
2.563,4.968181,
2.564,4.966537,
2.565,4.96588,
2.566,4.967195,
2.567,4.967524,
2.568,4.967195,
2.569,4.965222,
2.57,4.964893,
2.571,4.966866,
2.572,4.967195,
2.573,4.966866,
2.574,4.966866,
2.575,4.967524,
2.576,4.969825,
2.577,4.96851,
2.578,4.967195,
2.579,4.967853,
2.58,4.969825,
2.581,4.969497,
2.582,4.969497,
2.583,4.969168,
2.584,4.970483,
2.585,4.970483,
2.586,4.96851,
2.587,4.967853,
2.588,4.969825,
2.589,4.970154,
2.59,4.969825,
2.591,4.96851,
2.592,4.96851,
2.593,4.968839,
2.594,4.967524,
2.595,4.966866,
2.596,4.966866,
2.597,4.966866,
2.598,4.967524,
2.599,4.967853,
2.6,4.96851,
2.601,4.966866,
2.602,4.966209,
2.603,4.966866,
2.604,4.967524,
2.605,4.966537,
2.606,4.967853,
2.607,4.968839,
2.608,4.968839,
2.609,4.969497,
2.61,4.966537,
2.611,4.967195,
2.612,4.968839,
2.613,4.969497,
2.614,4.969497,
2.615,4.969497,
2.616,4.970483,
2.617,4.973113,
2.618,4.971141,
2.619,4.969825,
2.62,4.970483,
2.621,4.971141,
2.622,4.971798,
2.623,4.970154,
2.624,4.970154,
2.625,4.972456,
2.626,4.971798,
2.627,4.970812,
2.628,4.969168,
2.629,4.970483,
2.63,4.971469,
2.631,4.971141,
2.632,4.969168,
2.633,4.969168,
2.634,4.970154,
2.635,4.968839,
2.636,4.967853,
2.637,4.966209,
2.638,4.967853,
2.639,4.96851,
2.64,4.968839,
2.641,4.967853,
2.642,4.966209,
2.643,4.967853,
2.644,4.968839,
2.645,4.966866,
2.646,4.96588,
2.647,4.967524,
2.648,4.968181,
2.649,4.969168,
2.65,4.967195,
2.651,4.967195,
2.652,4.967195,
2.653,4.968839,
2.654,4.96851,
2.655,4.967524,
2.656,4.969825,
2.657,4.970812,
2.658,4.970483,
2.659,4.969497,
2.66,4.967853,
2.661,4.966209,
2.662,4.969825,
2.663,4.969168,
2.664,4.96851,
2.665,4.969497,
2.666,4.970154,
2.667,4.971141,
2.668,4.969168,
2.669,4.966537,
2.67,4.96851,
2.671,4.96851,
2.672,4.967524,
2.673,4.96588,
2.674,4.966537,
2.675,4.969168,
2.676,4.968181,
2.677,4.965222,
2.678,4.965551,
2.679,4.967524,
2.68,4.968839,
2.681,4.967524,
2.682,4.966537,
2.683,4.967853,
2.684,4.970812,
2.685,4.967853,
2.686,4.966209,
2.687,4.967195,
2.688,4.968839,
2.689,4.970483,
2.69,4.968839,
2.691,4.970154,
2.692,4.971141,
2.693,4.972127,
2.694,4.970483,
2.695,4.970154,
2.696,4.970154,
2.697,4.972456,
2.698,4.972456,
2.699,4.970812,
2.7,4.970483,
2.701,4.971141,
2.702,4.971141,
2.703,4.970483,
2.704,4.969168,
2.705,4.970154,
2.706,4.971798,
2.707,4.970483,
2.708,4.969825,
2.709,4.968839,
2.71,4.968839,
2.711,4.968181,
2.712,4.966537,
2.713,4.96588,
2.714,4.966537,
2.715,4.967853,
2.716,4.967853,
2.717,4.966866,
2.718,4.96588,
2.719,4.96588,
2.72,4.967195,
2.721,4.965551,
2.722,4.965551,
2.723,4.967195,
2.724,4.967853,
2.725,4.967853,
2.726,4.966209,
2.727,4.965551,
2.728,4.967524,
2.729,4.96851,
2.73,4.96851,
2.731,4.96851,
2.732,4.970154,
2.733,4.971469,
2.734,4.971798,
2.735,4.969168,
2.736,4.96851,
2.737,4.970483,
2.738,4.970812,
2.739,4.969497,
2.74,4.969168,
2.741,4.970812,
2.742,4.972456,
2.743,4.970483,
2.744,4.969168,
2.745,4.969168,
2.746,4.970812,
2.747,4.969825,
2.748,4.96851,
2.749,4.968839,
2.75,4.969825,
2.751,4.969497,
2.752,4.966537,
2.753,4.966537,
2.754,4.968181,
2.755,4.969168,
2.756,4.967853,
2.757,4.96851,
2.758,4.96851,
2.759,4.970154,
2.76,4.96851,
2.761,4.967195,
2.762,4.967195,
2.763,4.96851,
2.764,4.969497,
2.765,4.969168,
2.766,4.96851,
2.767,4.970483,
2.768,4.971141,
2.769,4.969825,
2.77,4.969825,
2.771,4.969168,
2.772,4.972127,
2.773,4.973113,
2.774,4.970483,
2.775,4.970483,
2.776,4.971798,
2.777,4.971141,
2.778,4.970154,
2.779,4.968181,
2.78,4.969168,
2.781,4.971798,
2.782,4.970812,
2.783,4.969168,
2.784,4.969497,
2.785,4.969497,
2.786,4.968839,
2.787,4.967524,
2.788,4.96588,
2.789,4.967195,
2.79,4.968839,
2.791,4.967195,
2.792,4.967195,
2.793,4.965222,
2.794,4.96588,
2.795,4.967195,
2.796,4.965222,
2.797,4.965222,
2.798,4.967195,
2.799,4.967853,
2.8,4.96851,
2.801,4.966537,
2.802,4.96588,
2.803,4.967524,
2.804,4.967853,
2.805,4.966537,
2.806,4.966866,
2.807,4.96851,
2.808,4.970812,
2.809,4.970154,
2.81,4.968839,
2.811,4.969825,
2.812,4.970154,
2.813,4.970483,
2.814,4.970483,
2.815,4.968839,
2.816,4.971469,
2.817,4.972785,
2.818,4.971469,
2.819,4.969825,
2.82,4.969168,
2.821,4.971141,
2.822,4.972456,
2.823,4.969497,
2.824,4.968839,
2.825,4.969825,
2.826,4.970812,
2.827,4.968839,
2.828,4.966866,
2.829,4.967524,
2.83,4.969497,
2.831,4.970483,
2.832,4.969168,
2.833,4.967853,
2.834,4.96851,
2.835,4.969497,
2.836,4.967853,
2.837,4.967195,
2.838,4.967524,
2.839,4.96851,
2.84,4.970154,
2.841,4.968839,
2.842,4.96851,
2.843,4.96851,
2.844,4.968839,
2.845,4.969825,
2.846,4.969497,
2.847,4.96851,
2.848,4.971798,
2.849,4.972785,
2.85,4.971141,
2.851,4.969825,
2.852,4.969168,
2.853,4.970812,
2.854,4.971798,
2.855,4.970154,
2.856,4.969825,
2.857,4.971798,
2.858,4.971469,
2.859,4.971141,
2.86,4.96851,
2.861,4.968181,
2.862,4.969825,
2.863,4.968839,
2.864,4.967195,
2.865,4.967195,
2.866,4.968181,
2.867,4.968839,
2.868,4.966866,
2.869,4.964893,
2.87,4.96588,
2.871,4.966537,
2.872,4.96588,
2.873,4.966537,
2.874,4.966537,
2.875,4.968181,
2.876,4.967524,
2.877,4.964893,
2.878,4.965551,
2.879,4.966866,
2.88,4.967524,
2.881,4.967853,
2.882,4.967195,
2.883,4.968181,
2.884,4.970812,
2.885,4.96851,
2.886,4.967524,
2.887,4.968181,
2.888,4.969168,
2.889,4.970483,
2.89,4.969497,
2.891,4.969168,
2.892,4.970154,
2.893,4.970812,
2.894,4.969825,
2.895,4.968839,
2.896,4.969497,
2.897,4.970154,
2.898,4.971798,
2.899,4.969825,
2.9,4.970483,
2.901,4.969168,
2.902,4.970154,
2.903,4.968839,
2.904,4.966866,
2.905,4.967195,
2.906,4.968839,
2.907,4.969825,
2.908,4.96851,
2.909,4.968181,
2.91,4.968839,
2.911,4.968181,
2.912,4.96851,
2.913,4.966866,
2.914,4.967195,
2.915,4.969168,
2.916,4.969497,
2.917,4.968839,
2.918,4.96851,
2.919,4.96851,
2.92,4.969825,
2.921,4.969168,
2.922,4.968839,
2.923,4.971469,
2.924,4.972127,
2.925,4.971141,
2.926,4.971141,
2.927,4.971141,
2.928,4.971469,
2.929,4.970483,
2.93,4.969497,
2.931,4.970483,
2.932,4.972456,
2.933,4.971798,
2.934,4.970812,
2.935,4.970154,
2.936,4.969825,
2.937,4.971469,
2.938,4.970154,
2.939,4.968181,
2.94,4.970154,
2.941,4.969825,
2.942,4.969168,
2.943,4.966866,
2.944,4.965551,
2.945,4.967524,
2.946,4.967853,
2.947,4.966209,
2.948,4.96588,
2.949,4.967195,
2.95,4.968181,
2.951,4.967853,
2.952,4.965222,
2.953,4.965222,
2.954,4.967195,
2.955,4.966866,
2.956,4.967195,
2.957,4.966866,
2.958,4.967853,
2.959,4.969168,
2.96,4.969168,
2.961,4.967195,
2.962,4.968181,
2.963,4.969825,
2.964,4.969825,
2.965,4.969825,
2.966,4.968839,
2.967,4.970812,
2.968,4.971798,
2.969,4.968839,
2.97,4.968181,
2.971,4.969825,
2.972,4.970812,
2.973,4.970154,
2.974,4.96851,
2.975,4.969825,
2.976,4.971141,
2.977,4.968839,
2.978,4.967524,
2.979,4.967524,
2.98,4.967853,
2.981,4.969497,
2.982,4.969168,
2.983,4.967853,
2.984,4.968181,
2.985,4.968839,
2.986,4.969168,
2.987,4.967195,
2.988,4.966537,
2.989,4.969497,
2.99,4.970154,
2.991,4.968839,
2.992,4.968181,
2.993,4.967853,
2.994,4.969168,
2.995,4.968839,
2.996,4.968181,
2.997,4.968839,
2.998,4.970154,
2.999,4.972785,
3,4.970812,
3.001,4.970483,
3.002,4.969825,
3.003,4.971469,
3.004,4.970483,
3.005,4.970154,
3.006,4.969825,
3.007,4.972785,
3.008,4.972127,
3.009,4.970154,
3.01,4.970483,
3.011,4.970812,
3.012,4.971141,
3.013,4.970154,
3.014,4.96851,
3.015,4.970812,
3.016,4.971798,
3.017,4.970483,
3.018,4.967853,
3.019,4.967195,
3.02,4.96851,
3.021,4.969825,
3.022,4.967195,
3.023,4.966866,
3.024,4.969168,
3.025,4.968839,
3.026,4.96851,
3.027,4.966537,
3.028,4.965551,
3.029,4.967195,
3.03,4.968181,
3.031,4.966866,
3.032,4.967195,
3.033,4.966537,
3.034,4.967853,
3.035,4.968839,
3.036,4.967524,
3.037,4.967195,
3.038,4.967853,
3.039,4.970154,
3.04,4.970154,
3.041,4.969497,
3.042,4.969168,
3.043,4.969497,
3.044,4.969168,
3.045,4.968839,
3.046,4.967853,
3.047,4.96851,
3.048,4.970483,
3.049,4.970483,
3.05,4.969825,
3.051,4.969497,
3.052,4.969168,
3.053,4.969168,
3.054,4.96851,
3.055,4.967524,
3.056,4.968839,
3.057,4.969497,
3.058,4.967853,
3.059,4.967524,
3.06,4.966209,
3.061,4.966537,
3.062,4.96851,
3.063,4.966537,
3.064,4.967195,
3.065,4.968839,
3.066,4.96851,
3.067,4.969825,
3.068,4.967853,
3.069,4.966866,
3.07,4.968181,
3.071,4.969168,
3.072,4.96851,
3.073,4.967853,
3.074,4.971141,
3.075,4.972456,
3.076,4.971469,
3.077,4.968839,
3.078,4.969497,
3.079,4.971141,
3.08,4.971798,
3.081,4.970154,
3.082,4.971141,
3.083,4.972456,
3.084,4.973113,
3.085,4.970154,
3.086,4.969497,
3.087,4.969825,
3.088,4.971798,
3.089,4.971141,
3.09,4.970154,
3.091,4.969825,
3.092,4.971141,
3.093,4.970812,
3.094,4.966537,
3.095,4.96588,
3.096,4.968181,
3.097,4.968181,
3.098,4.967524,
3.099,4.966866,
3.1,4.966209,
3.101,4.968181,
3.102,4.967195,
3.103,4.964893,
3.104,4.966209,
3.105,4.967524,
3.106,4.967853,
3.107,4.967853,
3.108,4.96588,
3.109,4.967195,
3.11,4.967853,
3.111,4.967853,
3.112,4.967195,
3.113,4.966866,
3.114,4.968181,
3.115,4.971798,
3.116,4.970154,
3.117,4.968839,
3.118,4.967853,
3.119,4.969497,
3.12,4.970154,
3.121,4.96851,
3.122,4.96851,
3.123,4.970154,
3.124,4.970154,
3.125,4.970812,
3.126,4.968839,
3.127,4.967853,
3.128,4.969825,
3.129,4.969825,
3.13,4.967853,
3.131,4.967853,
3.132,4.967853,
3.133,4.969825,
3.134,4.969497,
3.135,4.965222,
3.136,4.96588,
3.137,4.967853,
3.138,4.967524,
3.139,4.966537,
3.14,4.966209,
3.141,4.969168,
3.142,4.970483,
3.143,4.967524,
3.144,4.966209,
3.145,4.967853,
3.146,4.969168,
3.147,4.96851,
3.148,4.967853,
3.149,4.969497,
3.15,4.971141,
3.151,4.970812,
3.152,4.96851,
3.153,4.969168,
3.154,4.971469,
3.155,4.971469,
3.156,4.969497,
3.157,4.970812,
3.158,4.971798,
3.159,4.972456,
3.16,4.970812,
3.161,4.969168,
3.162,4.969497,
3.163,4.972127,
3.164,4.971141,
3.165,4.970154,
3.166,4.970154,
3.167,4.970812,
3.168,4.971141,
3.169,4.969168,
3.17,4.967195,
3.171,4.967853,
3.172,4.969497,
3.173,4.968839,
3.174,4.968181,
3.175,4.966537,
3.176,4.968839,
3.177,4.967195,
3.178,4.966537,
3.179,4.966209,
3.18,4.966866,
3.181,4.968181,
3.182,4.96851,
3.183,4.966537,
3.184,4.966537,
3.185,4.968181,
3.186,4.967524,
3.187,4.966866,
3.188,4.96588,
3.189,4.96851,
3.19,4.970812,
3.191,4.96851,
3.192,4.96851,
3.193,4.968839,
3.194,4.969168,
3.195,4.969497,
3.196,4.968181,
3.197,4.968181,
3.198,4.970483,
3.199,4.970812,
3.2,4.970483,
3.201,4.968839,
3.202,4.96851,
3.203,4.969497,
3.204,4.969168,
3.205,4.968181,
3.206,4.96851,
3.207,4.970154,
3.208,4.969825,
3.209,4.968181,
3.21,4.96588,
3.211,4.966866,
3.212,4.968181,
3.213,4.967195,
3.214,4.966537,
3.215,4.966866,
3.216,4.969168,
3.217,4.970154,
3.218,4.967853,
3.219,4.966537,
3.22,4.967195,
3.221,4.968181,
3.222,4.969825,
3.223,4.966537,
3.224,4.967853,
3.225,4.968839,
3.226,4.970154,
3.227,4.968839,
3.228,4.968181,
3.229,4.968839,
3.23,4.971798,
3.231,4.971469,
3.232,4.970154,
3.233,4.970483,
3.234,4.970483,
3.235,4.971469,
3.236,4.971141,
3.237,4.969168,
3.238,4.970483,
3.239,4.971141,
3.24,4.971469,
3.241,4.970812,
3.242,4.969497,
3.243,4.971141,
3.244,4.971141,
3.245,4.969168,
3.246,4.968839,
3.247,4.968181,
3.248,4.969825,
3.249,4.969497,
3.25,4.967195,
3.251,4.96588,
3.252,4.966866,
3.253,4.966866,
3.254,4.966209,
3.255,4.96588,
3.256,4.968181,
3.257,4.967853,
3.258,4.967524,
3.259,4.967195,
3.26,4.965551,
3.261,4.966866,
3.262,4.967195,
3.263,4.96588,
3.264,4.966209,
3.265,4.967195,
3.266,4.96851,
3.267,4.970812,
3.268,4.968181,
3.269,4.967195,
3.27,4.969497,
3.271,4.970154,
3.272,4.969168,
3.273,4.96851,
3.274,4.970812,
3.275,4.972127,
3.276,4.970483,
3.277,4.967524,
3.278,4.969497,
3.279,4.970483,
3.28,4.970154,
3.281,4.969497,
3.282,4.970154,
3.283,4.972456,
3.284,4.972127,
3.285,4.967853,
3.286,4.966866,
3.287,4.96851,
3.288,4.969825,
3.289,4.968181,
3.29,4.966866,
3.291,4.969497,
3.292,4.970812,
3.293,4.967853,
3.294,4.966537,
3.295,4.966866,
3.296,4.969168,
3.297,4.969168,
3.298,4.967195,
3.299,4.967524,
3.3,4.969497,
3.301,4.968839,
3.302,4.967524,
3.303,4.966537,
3.304,4.96851,
3.305,4.970812,
3.306,4.970483,
3.307,4.969825,
3.308,4.970812,
3.309,4.971469,
3.31,4.970483,
3.311,4.968839,
3.312,4.967524,
3.313,4.969497,
3.314,4.970483,
3.315,4.969825,
3.316,4.967853,
3.317,4.96851,
3.318,4.970483,
3.319,4.968839,
3.32,4.967524,
3.321,4.967524,
3.322,4.968181,
3.323,4.969497,
3.324,4.967853,
3.325,4.966537,
3.326,4.966537,
3.327,4.965551,
3.328,4.96588,
3.329,4.96588,
3.33,4.965222,
3.331,4.966537,
3.332,4.968181,
3.333,4.967195,
3.334,4.968181,
3.335,4.96588,
3.336,4.966209,
3.337,4.96851,
3.338,4.966866,
3.339,4.967195,
3.34,4.967853,
3.341,4.968839,
3.342,4.971141,
3.343,4.969497,
3.344,4.967524,
3.345,4.970483,
3.346,4.971141,
3.347,4.971141,
3.348,4.970483,
3.349,4.971141,
3.35,4.972456,
3.351,4.973442,
3.352,4.969497,
3.353,4.969168,
3.354,4.969825,
3.355,4.971798,
3.356,4.971798,
3.357,4.969168,
3.358,4.971141,
3.359,4.972127,
3.36,4.970483,
3.361,4.96851,
3.362,4.967195,
3.363,4.967853,
3.364,4.969168,
3.365,4.967524,
3.366,4.965551,
3.367,4.967195,
3.368,4.967195,
3.369,4.966537,
3.37,4.965551,
3.371,4.966537,
3.372,4.968181,
3.373,4.967524,
3.374,4.96588,
3.375,4.966537,
3.376,4.967524,
3.377,4.967195,
3.378,4.96588,
3.379,4.96588,
3.38,4.966537,
3.381,4.968181,
3.382,4.970483,
3.383,4.96851,
3.384,4.969497,
3.385,4.969168,
3.386,4.969825,
3.387,4.969497,
3.388,4.96851,
3.389,4.968181,
3.39,4.971141,
3.391,4.971798,
3.392,4.971141,
3.393,4.970483,
3.394,4.969825,
3.395,4.972456,
3.396,4.971141,
3.397,4.969825,
3.398,4.969825,
3.399,4.971798,
3.4,4.971141,
3.401,4.970154,
3.402,4.966537,
3.403,4.967524,
3.404,4.968839,
3.405,4.968181,
3.406,4.967853,
3.407,4.968181,
3.408,4.969168,
3.409,4.970812,
3.41,4.966537,
3.411,4.96588,
3.412,4.966537,
3.413,4.968181,
3.414,4.969168,
3.415,4.967195,
3.416,4.967524,
3.417,4.96851,
3.418,4.96851,
3.419,4.967853,
3.42,4.966866,
3.421,4.96851,
3.422,4.970812,
3.423,4.970483,
3.424,4.968839,
3.425,4.968839,
3.426,4.970483,
3.427,4.970154,
3.428,4.96851,
3.429,4.967524,
3.43,4.969497,
3.431,4.969825,
3.432,4.969825,
3.433,4.96851,
3.434,4.969497,
3.435,4.969825,
3.436,4.969497,
3.437,4.967524,
3.438,4.967195,
3.439,4.968839,
3.44,4.968181,
3.441,4.967195,
3.442,4.966537,
3.443,4.969168,
3.444,4.968181,
3.445,4.966866,
3.446,4.966866,
3.447,4.966866,
3.448,4.968839,
3.449,4.970154,
3.45,4.967853,
3.451,4.968181,
3.452,4.968181,
3.453,4.96851,
3.454,4.968181,
3.455,4.967524,
3.456,4.969168,
3.457,4.970812,
3.458,4.970483,
3.459,4.971141,
3.46,4.969497,
3.461,4.970154,
3.462,4.971469,
3.463,4.970812,
3.464,4.969825,
3.465,4.970154,
3.466,4.972456,
3.467,4.972127,
3.468,4.970812,
3.469,4.96851,
3.47,4.969497,
3.471,4.971141,
3.472,4.970483,
3.473,4.968839,
3.474,4.969825,
3.475,4.970154,
3.476,4.970483,
3.477,4.966866,
3.478,4.965551,
3.479,0.208906,
3.48,0.089226,
3.481,0.087253,
3.482,0.086924,
3.483,0.087253,
3.484,0.086924,
3.485,0.087253,
3.486,0.086924,
3.487,0.086924,
3.488,0.087582,
3.489,0.087253,
3.49,0.086924,
3.491,0.087253,
3.492,0.087253,
3.493,0.087582,
3.494,0.087253,
3.495,0.087253,
3.496,0.087582,
3.497,0.086924,
3.498,0.087253,
3.499,0.087253,
3.5,0.087253,
3.501,0.087253,
3.502,0.087582,
3.503,0.086595,
3.504,0.087253,
3.505,0.086595,
3.506,0.086924,
3.507,0.087253,
3.508,0.087253,
3.509,0.087253,
3.51,0.086924,
3.511,0.086924,
3.512,0.086924,
3.513,0.086924,
3.514,0.087582,
3.515,0.097445,
3.516,4.435207,
3.517,4.968839,
3.518,4.967853,
3.519,4.967524,
3.52,4.968181,
3.521,4.967853,
3.522,4.967195,
3.523,4.968181,
3.524,4.969825,
3.525,4.96851,
3.526,4.967195,
3.527,4.966209,
3.528,4.967195,
3.529,4.968839,
3.53,4.967195,
3.531,4.966209,
3.532,4.96851,
3.533,4.969825,
3.534,4.969497,
3.535,4.966866,
3.536,4.966866,
3.537,4.969825,
3.538,4.970154,
3.539,4.969497,
3.54,4.969497,
3.541,4.970483,
3.542,4.972456,
3.543,4.970154,
3.544,4.967524,
3.545,4.967524,
3.546,4.969497,
3.547,4.969825,
3.548,4.969168,
3.549,4.967853,
3.55,4.969168,
3.551,4.970483,
3.552,4.96851,
3.553,4.966537,
3.554,4.967195,
3.555,4.96851,
3.556,4.968181,
3.557,4.965551,
3.558,4.966209,
3.559,4.968181,
3.56,4.966537,
3.561,4.965222,
3.562,4.965222,
3.563,4.96588,
3.564,4.967853,
3.565,4.967853,
3.566,4.965551,
3.567,4.967195,
3.568,4.967853,
3.569,4.967195,
3.57,4.96588,
3.571,4.965551,
3.572,4.967524,
3.573,4.969497,
3.574,4.968839,
3.575,4.969497,
3.576,4.970483,
3.577,4.970483,
3.578,4.969825,
3.579,4.969168,
3.58,4.969497,
3.581,4.970483,
3.582,4.970154,
3.583,4.969825,
3.584,4.969497,
3.585,4.969825,
3.586,4.969825,
3.587,4.969497,
3.588,4.968839,
3.589,4.969168,
3.59,4.970483,
3.591,4.970154,
3.592,4.969168,
3.593,4.967524,
3.594,4.967195,
3.595,4.96851,
3.596,4.96851,
3.597,4.966537,
3.598,4.967195,
3.599,4.968839,
3.6,4.969497,
3.601,4.968839,
3.602,4.96588,
3.603,4.966866,
3.604,4.96851,
3.605,4.967853,
3.606,4.967524,
3.607,4.969497,
3.608,4.969825,
3.609,4.969825,
3.61,4.966866,
3.611,4.967853,
3.612,4.970812,
3.613,4.970483,
3.614,4.969497,
3.615,4.969825,
3.616,4.971469,
3.617,4.971469,
3.618,4.969825,
3.619,4.967524,
3.62,4.970483,
3.621,4.970483,
3.622,4.970154,
3.623,4.969168,
3.624,4.969497,
3.625,4.970154,
3.626,4.970483,
3.627,4.967195,
3.628,4.968181,
3.629,4.969168,
3.63,4.96851,
3.631,4.967853,
3.632,4.96588,
3.633,4.966209,
3.634,4.967195,
3.635,4.967524,
3.636,4.96588,
3.637,4.964893,
3.638,4.964893,
3.639,4.967524,
3.64,4.967853,
3.641,4.965222,
3.642,4.966537,
3.643,4.966866,
3.644,4.966537,
3.645,4.966537,
3.646,4.965222,
3.647,4.966866,
3.648,4.969168,
3.649,4.969497,
3.65,4.96851,
3.651,4.968181,
3.652,4.969825,
3.653,4.970812,
3.654,4.969168,
3.655,4.968839,
3.656,4.970483,
3.657,4.972785,
3.658,4.971141,
3.659,4.970812,
3.66,4.970154,
3.661,4.971141,
3.662,4.971469,
3.663,4.969825,
3.664,4.969825,
3.665,4.971798,
3.666,4.972785,
3.667,4.970483,
3.668,4.969168,
3.669,4.968181,
3.67,4.969168,
3.671,4.969497,
3.672,4.968181,
3.673,4.967195,
3.674,4.969497,
3.675,4.969497,
3.676,4.967524,
3.677,4.966209,
3.678,4.966866,
3.679,4.968181,
3.68,4.967853,
3.681,4.966537,
3.682,4.966866,
3.683,4.969825,
3.684,4.969168,
3.685,4.966866,
3.686,4.964565,
3.687,4.967524,
3.688,4.969168,
3.689,4.968839,
3.69,4.96851,
3.691,4.969497,
3.692,4.970483,
3.693,4.970483,
3.694,4.967195,
3.695,4.967195,
3.696,4.968839,
3.697,4.970812,
3.698,4.970154,
3.699,4.96851,
3.7,4.969168,
3.701,4.970483,
3.702,4.969497,
3.703,4.968839,
3.704,4.967853,
3.705,4.969168,
3.706,4.969825,
3.707,4.96851,
3.708,4.967524,
3.709,4.968181,
3.71,4.968181,
3.711,4.967524,
3.712,4.966209,
3.713,4.96588,
3.714,4.967195,
3.715,4.968181,
3.716,4.968181,
3.717,4.96851,
3.718,4.966866,
3.719,4.967853,
3.72,4.96851,
3.721,4.967853,
3.722,4.966866,
3.723,4.968181,
3.724,4.969168,
3.725,4.969168,
3.726,4.969168,
3.727,4.969497,
3.728,4.970483,
3.729,4.970483,
3.73,4.969825,
3.731,4.970812,
3.732,4.972127,
3.733,4.972785,
3.734,4.971141,
3.735,4.970154,
3.736,4.970483,
3.737,4.971469,
3.738,4.970154,
3.739,4.969825,
3.74,4.970812,
3.741,4.972456,
3.742,4.971469,
3.743,4.969497,
3.744,4.968839,
3.745,4.968839,
3.746,4.969825,
3.747,4.969168,
3.748,4.966866,
3.749,4.96851,
3.75,4.968181,
3.751,4.96851,
3.752,4.96588,
3.753,4.96588,
3.754,4.96588,
3.755,4.967524,
3.756,4.966866,
3.757,4.966209,
3.758,4.966209,
3.759,4.967195,
3.76,4.967524,
3.761,4.965222,
3.762,4.965551,
3.763,4.967195,
3.764,4.967195,
3.765,4.968839,
3.766,4.967853,
3.767,4.968839,
3.768,4.969825,
3.769,4.969168,
3.77,4.967853,
3.771,4.968181,
3.772,4.96851,
3.773,4.970812,
3.774,4.969825,
3.775,4.969825,
3.776,4.969497,
3.777,4.969497,
3.778,4.969825,
3.779,4.96851,
3.78,4.968181,
3.781,4.969825,
3.782,4.969825,
3.783,4.970154,
3.784,4.96851,
3.785,4.967853,
3.786,4.96851,
3.787,4.968181,
3.788,4.966209,
3.789,4.966866,
3.79,4.96851,
3.791,4.969168,
3.792,4.968839,
3.793,4.966537,
3.794,4.966209,
3.795,4.968839,
3.796,4.968839,
3.797,4.967524,
3.798,4.967195,
3.799,4.968839,
3.8,4.969497,
3.801,4.969168,
3.802,4.967853,
3.803,4.96851,
3.804,4.970483,
3.805,4.971469,
3.806,4.970812,
3.807,4.970154,
3.808,4.971798,
3.809,4.973113,
3.81,4.971141,
3.811,4.970483,
3.812,4.969168,
3.813,4.971469,
3.814,4.972127,
3.815,4.972127,
3.816,4.970154,
3.817,4.970154,
3.818,4.970812,
3.819,4.970483,
3.82,4.969825,
3.821,4.967524,
3.822,4.96851,
3.823,4.969825,
3.824,4.969497,
3.825,4.966866,
3.826,4.967195,
3.827,4.967195,
3.828,4.967195,
3.829,4.966209,
3.83,4.965551,
3.831,4.96588,
3.832,4.967195,
3.833,4.967853,
3.834,4.967195,
3.835,4.964893,
3.836,4.966209,
3.837,4.966537,
3.838,4.966209,
3.839,4.964893,
3.84,4.967853,
3.841,4.969497,
3.842,4.970154,
3.843,4.967853,
3.844,4.966866,
3.845,4.969168,
3.846,4.971469,
3.847,4.970483,
3.848,4.96851,
3.849,4.970154,
3.85,4.972785,
3.851,4.972785,
3.852,4.967853,
3.853,4.96851,
3.854,4.971469,
3.855,4.970812,
3.856,4.970154,
3.857,4.970154,
3.858,4.971141,
3.859,4.972456,
3.86,4.969497,
3.861,4.96851,
3.862,4.968181,
3.863,4.969825,
3.864,4.970154,
3.865,4.968839,
3.866,4.967524,
3.867,4.968839,
3.868,4.969497,
3.869,4.967524,
3.87,4.966866,
3.871,4.967524,
3.872,4.968839,
3.873,4.969825,
3.874,4.967853,
3.875,4.967853,
3.876,4.969497,
3.877,4.968181,
3.878,4.968181,
3.879,4.967524,
3.88,4.96851,
3.881,4.969825,
3.882,4.970154,
3.883,4.969168,
3.884,4.969168,
3.885,4.970154,
3.886,4.969497,
3.887,4.969168,
3.888,4.968839,
3.889,4.970812,
3.89,4.971469,
3.891,4.969168,
3.892,4.969168,
3.893,4.969168,
3.894,4.968839,
3.895,4.969168,
3.896,4.967853,
3.897,4.967195,
3.898,4.968839,
3.899,4.969497,
3.9,4.968839,
3.901,4.966537,
3.902,4.96588,
3.903,4.967195,
3.904,4.96588,
3.905,4.965551,
3.906,4.966209,
3.907,4.968181,
3.908,4.968181,
3.909,4.966866,
3.91,4.965551,
3.911,4.966209,
3.912,4.967195,
3.913,4.966537,
3.914,4.966209,
3.915,4.966866,
3.916,4.968839,
3.917,4.969825,
3.918,4.967853,
3.919,4.966537,
3.92,4.969168,
3.921,4.971141,
3.922,4.969497,
3.923,4.969825,
3.924,4.971141,
3.925,4.973113,
3.926,4.972785,
3.927,4.969168,
3.928,4.968839,
3.929,4.971469,
3.93,4.972456,
3.931,4.971469,
3.932,4.970483,
3.933,4.970812,
3.934,4.971469,
3.935,4.971141,
3.936,4.969825,
3.937,4.967853,
3.938,4.969825,
3.939,4.969168,
3.94,4.968839,
3.941,4.967524,
3.942,4.966866,
3.943,4.96851,
3.944,4.967853,
3.945,4.965222,
3.946,4.966537,
3.947,4.968181,
3.948,4.96851,
3.949,4.968181,
3.95,4.966537,
3.951,4.967853,
3.952,4.967195,
3.953,4.967524,
3.954,4.96588,
3.955,4.966866,
3.956,4.968181,
3.957,4.970154,
3.958,4.969168,
3.959,4.968839,
3.96,4.969168,
3.961,4.969825,
3.962,4.969497,
3.963,4.967853,
3.964,4.96851,
3.965,4.969825,
3.966,4.970483,
3.967,4.970154,
3.968,4.96851,
3.969,4.968181,
3.97,4.969497,
3.971,4.969168,
3.972,4.968181,
3.973,4.968839,
3.974,4.969825,
3.975,4.970154,
3.976,4.96851,
3.977,4.964893,
3.978,4.967195,
3.979,4.966866,
3.98,4.96851,
3.981,4.967195,
3.982,4.966209,
3.983,4.967524,
3.984,4.969168,
3.985,4.967524,
3.986,4.966209,
3.987,4.966537,
3.988,4.967853,
3.989,4.968839,
3.99,4.967195,
3.991,4.967853,
3.992,4.968181,
3.993,4.969497,
3.994,4.968839,
3.995,4.966866,
3.996,4.969168,
3.997,4.970483,
3.998,4.971469,
3.999,4.970812,
4,4.971141,
4.001,4.970812,
4.002,4.971469,
4.003,4.970154,
4.004,4.969497,
4.005,4.970483,
4.006,4.971798,
4.007,4.972456,
4.008,4.970812,
4.009,4.970812,
4.01,4.971141,
4.011,4.970812,
4.012,4.969497,
4.013,4.969825,
4.014,4.970154,
4.015,4.970154,
4.016,4.970154,
4.017,4.969168,
4.018,4.967195,
4.019,4.967195,
4.02,4.96851,
4.021,4.968181,
4.022,4.966866,
4.023,4.967853,
4.024,4.969168,
4.025,4.968839,
4.026,4.966866,
4.027,4.965222,
4.028,4.966537,
4.029,4.967853,
4.03,4.967195,
4.031,4.96588,
4.032,4.967195,
4.033,4.969168,
4.034,4.969497,
4.035,4.967195,
4.036,4.967853,
4.037,4.969825,
4.038,4.969825,
4.039,4.969168,
4.04,4.96851,
4.041,4.970154,
4.042,4.970812,
4.043,4.969825,
4.044,4.967853,
4.045,4.967853,
4.046,4.969168,
4.047,4.970483,
4.048,4.969168,
4.049,4.968181,
4.05,4.970154,
4.051,4.970154,
4.052,4.966537,
4.053,4.966209,
4.054,4.967195,
4.055,4.967853,
4.056,4.966866,
4.057,4.965551,
4.058,4.966866,
4.059,4.967853,
4.06,4.967195,
4.061,4.966537,
4.062,4.96588,
4.063,4.967195,
4.064,4.969168,
4.065,4.96851,
4.066,4.967524,
4.067,4.968839,
4.068,4.967524,
4.069,4.967853,
4.07,4.968181,
4.071,4.966209,
4.072,4.968181,
4.073,4.970483,
4.074,4.971141,
4.075,4.971469,
4.076,4.970154,
4.077,4.968839,
4.078,4.971141,
4.079,4.971469,
4.08,4.969825,
4.081,4.970812,
4.082,4.972127,
4.083,4.972456,
4.084,4.971141,
4.085,4.96851,
4.086,4.970483,
4.087,4.971798,
4.088,4.970812,
4.089,4.969825,
4.09,4.969825,
4.091,4.971798,
4.092,4.971141,
4.093,4.967524,
4.094,4.966537,
4.095,4.968181,
4.096,4.969168,
4.097,4.967524,
4.098,4.967524,
4.099,4.96851,
4.1,4.96851,
4.101,4.96851,
4.102,4.966209,
4.103,4.966209,
4.104,4.967524,
4.105,4.969825,
4.106,4.967524,
4.107,4.966866,
4.108,4.967853,
4.109,4.96851,
4.11,4.96851,
4.111,4.967524,
4.112,4.966866,
4.113,4.968181,
4.114,4.969825,
4.115,4.969497,
4.116,4.968839,
4.117,4.96851,
4.118,4.968839,
4.119,4.969825,
4.12,4.968181,
4.121,4.967853,
4.122,4.969497,
4.123,4.970483,
4.124,4.969825,
4.125,4.96851,
4.126,4.968839,
4.127,4.96851,
4.128,4.969168,
4.129,4.967524,
4.13,4.966209,
4.131,4.967195,
4.132,4.969497,
4.133,4.969168,
4.134,4.967524,
4.135,4.965551,
4.136,4.966209,
4.137,4.968181,
4.138,4.966537,
4.139,4.966209,
4.14,4.966866,
4.141,4.969168,
4.142,4.970154,
4.143,4.967195,
4.144,4.96588,
4.145,4.96851,
4.146,4.969168,
4.147,4.96851,
4.148,4.969168,
4.149,4.969825,
4.15,4.972127,
4.151,4.971798,
4.152,4.969168,
4.153,4.969825,
4.154,4.970812,
4.155,4.971469,
4.156,4.971141,
4.157,4.970483,
4.158,4.971141,
4.159,4.972456,
4.16,4.969825,
4.161,4.969497,
4.162,4.96851,
4.163,4.970812,
4.164,4.970812,
4.165,4.969825,
4.166,4.96851,
4.167,4.96851,
4.168,4.96851,
4.169,4.96851,
4.17,4.967195,
4.171,4.964893,
4.172,4.966866,
4.173,4.967853,
4.174,4.967524,
4.175,4.966866,
4.176,4.96588,
4.177,4.966209,
4.178,4.966866,
4.179,4.96588,
4.18,4.96588,
4.181,4.966537,
4.182,4.96851,
4.183,4.968181,
4.184,4.966209,
4.185,4.96588,
4.186,4.966866,
4.187,4.968181,
4.188,4.967853,
4.189,4.967524,
4.19,4.969168,
4.191,4.970812,
4.192,4.971141,
4.193,4.968839,
4.194,4.967195,
4.195,4.969168,
4.196,4.970812,
4.197,4.969168,
4.198,4.969168,
4.199,4.970483,
4.2,4.971798,
4.201,4.970812,
4.202,4.96851,
4.203,4.969497,
4.204,4.971469,
4.205,4.970483,
4.206,4.969168,
4.207,4.968839,
4.208,4.969168,
4.209,4.970812,
4.21,4.96851,
4.211,4.966537,
4.212,4.967195,
4.213,4.96851,
4.214,4.969168,
4.215,4.968181,
4.216,4.967524,
4.217,4.968839,
4.218,4.96851,
4.219,4.967524,
4.22,4.967524,
4.221,4.967195,
4.222,4.968839,
4.223,4.970154,
4.224,4.968839,
4.225,4.969168,
4.226,4.969497,
4.227,4.969168,
4.228,4.971141,
4.229,4.96851,
4.23,4.96851,
4.231,4.970154,
4.232,4.971469,
4.233,4.970483,
4.234,4.969168,
4.235,4.967853,
4.236,4.969497,
4.237,4.969825,
4.238,4.968181,
4.239,4.968181,
4.24,4.970483,
4.241,4.971141,
4.242,4.969825,
4.243,4.967195,
4.244,4.967524,
4.245,4.967195,
4.246,4.967853,
4.247,4.96588,
4.248,4.96588,
4.249,4.967853,
4.25,4.969497,
4.251,4.966209,
4.252,4.965222,
4.253,4.966537,
4.254,4.968181,
4.255,4.967195,
4.256,4.96588,
4.257,4.969168,
4.258,4.969168,
4.259,4.970154,
4.26,4.966866,
4.261,4.966537,
4.262,4.969168,
4.263,4.970812,
4.264,4.969168,
4.265,4.969497,
4.266,4.971141,
4.267,4.971469,
4.268,4.971798,
4.269,4.969497,
4.27,4.970812,
4.271,4.972127,
4.272,4.971141,
4.273,4.970812,
4.274,4.971141,
4.275,4.970483,
4.276,4.971798,
4.277,4.969497,
4.278,4.968839,
4.279,4.970154,
4.28,4.970812,
4.281,4.971798,
4.282,4.970154,
4.283,4.968839,
4.284,4.968181,
4.285,4.96851,
4.286,4.967524,
4.287,4.966537,
4.288,4.966537,
4.289,4.968181,
4.29,4.968839,
4.291,4.966537,
4.292,4.966866,
4.293,4.966537,
4.294,4.966866,
4.295,4.966537,
4.296,4.965551,
4.297,4.965222,
4.298,4.967524,
4.299,4.968181,
4.3,4.968181,
4.301,4.966537,
4.302,4.967195,
4.303,4.968839,
4.304,4.968181,
4.305,4.967853,
4.306,4.969168,
4.307,4.970483,
4.308,4.970483,
4.309,4.970812,
4.31,4.96851,
4.311,4.970154,
4.312,4.970154,
4.313,4.969825,
4.314,4.969168,
4.315,4.969497,
4.316,4.970812,
4.317,4.971798,
4.318,4.969497,
4.319,4.967524,
4.32,4.96851,
4.321,4.969497,
4.322,4.968181,
4.323,4.967195,
4.324,4.96851,
4.325,4.969497,
4.326,4.968839,
4.327,4.966537,
4.328,4.966537,
4.329,4.967524,
4.33,4.970154,
4.331,4.967524,
4.332,4.967853,
4.333,4.969497,
4.334,4.969825,
4.335,4.968181,
4.336,4.967195,
4.337,4.966537,
4.338,4.969168,
4.339,4.970154,
4.34,4.968839,
4.341,4.969497,
4.342,4.970483,
4.343,4.971798,
4.344,4.970483,
4.345,4.968839,
4.346,4.970154,
4.347,4.971798,
4.348,4.971469,
4.349,4.970812,
4.35,4.968839,
4.351,4.969497,
4.352,4.969497,
4.353,4.970154,
4.354,4.968181,
4.355,4.968181,
4.356,4.969825,
4.357,4.970812,
4.358,4.969168,
4.359,4.967195,
4.36,4.966866,
4.361,4.967524,
4.362,4.967853,
4.363,4.965551,
4.364,4.965222,
4.365,4.967195,
4.366,4.967853,
4.367,4.966866,
4.368,4.965222,
4.369,4.965551,
4.37,4.967524,
4.371,4.966209,
4.372,4.965222,
4.373,4.966866,
4.374,4.967853,
4.375,4.968839,
4.376,4.966209,
4.377,4.965551,
4.378,4.967853,
4.379,4.969168,
4.38,4.968181,
4.381,4.968839,
4.382,4.970483,
4.383,4.971469,
4.384,4.971469,
4.385,4.968839,
4.386,4.969497,
4.387,4.971141,
4.388,4.970812,
4.389,4.969825,
4.39,4.969825,
4.391,4.970483,
4.392,4.972456,
4.393,4.970812,
4.394,4.968181,
4.395,4.968839,
4.396,4.969825,
4.397,4.971798,
4.398,4.970483,
4.399,4.96851,
4.4,4.96851,
4.401,4.969825,
4.402,4.96851,
4.403,4.966866,
4.404,4.966866,
4.405,4.967853,
4.406,4.968839,
4.407,4.968181,
4.408,4.968181,
4.409,4.967853,
4.41,4.967524,
4.411,4.967524,
4.412,4.96588,
4.413,4.966209,
4.414,4.968181,
4.415,4.96851,
4.416,4.968181,
4.417,4.968181,
4.418,4.967524,
4.419,4.968839,
4.42,4.969825,
4.421,4.96851,
4.422,4.968839,
4.423,4.970483,
4.424,4.971141,
4.425,4.971141,
4.426,4.969168,
4.427,4.967524,
4.428,4.969497,
4.429,4.970154,
4.43,4.969168,
4.431,4.968181,
4.432,4.969168,
4.433,4.970483,
4.434,4.969497,
4.435,4.967195,
4.436,4.966537,
4.437,4.967195,
4.438,4.967853,
4.439,4.966209,
4.44,4.96588,
4.441,4.967524,
4.442,4.967853,
4.443,4.966866,
4.444,4.964236,
4.445,4.964893,
4.446,4.966537,
4.447,4.966866,
4.448,4.966209,
4.449,4.966537,
4.45,4.966537,
4.451,4.96851,
4.452,4.967195,
4.453,4.965222,
4.454,4.96588,
4.455,4.96851,
4.456,4.970154,
4.457,4.968839,
4.458,4.968839,
4.459,4.969825,
4.46,4.971141,
4.461,4.971141,
4.462,4.969825,
4.463,4.969825,
4.464,4.971469,
4.465,4.973442,
4.466,4.971469,
4.467,4.970483,
4.468,4.970154,
4.469,4.971469,
4.47,4.971141,
4.471,4.969825,
4.472,4.969825,
4.473,4.971469,
4.474,4.971469,
4.475,4.970812,
4.476,4.968181,
4.477,4.96588,
4.478,4.96851,
4.479,4.967853,
4.48,4.966866,
4.481,4.966537,
4.482,4.966866,
4.483,4.968839,
4.484,4.96851,
4.485,4.965222,
4.486,4.965222,
4.487,4.966537,
4.488,4.967853,
4.489,4.967195,
4.49,4.96588,
4.491,4.967195,
4.492,4.969497,
4.493,4.967853,
4.494,4.966537,
4.495,4.96588,
4.496,4.967195,
4.497,4.970154,
4.498,4.969497,
4.499,4.967853,
4.5,4.969497,
4.501,4.970483,
4.502,4.969168,
4.503,4.967524,
4.504,4.967195,
4.505,4.968839,
4.506,4.970154,
4.507,4.970483,
4.508,4.969825,
4.509,4.969168,
4.51,4.969497,
4.511,4.969497,
4.512,4.967853,
4.513,4.967524,
4.514,4.968181,
4.515,4.969825,
4.516,4.969825,
4.517,4.967853,
4.518,4.967195,
4.519,4.966866,
4.52,4.968181,
4.521,4.966866,
4.522,4.965222,
4.523,4.96851,
4.524,4.968839,
4.525,4.96851,
4.526,4.968181,
4.527,4.966209,
4.528,4.968839,
4.529,4.969497,
4.53,4.966866,
4.531,4.967853,
4.532,4.971141,
4.533,4.971141,
4.534,4.972456,
4.535,4.968839,
4.536,4.968839,
4.537,4.972127,
4.538,4.971798,
4.539,4.971141,
4.54,4.971141,
4.541,4.972127,
4.542,4.973442,
4.543,4.970812,
4.544,4.96851,
4.545,4.968839,
4.546,4.970812,
4.547,4.971469,
4.548,4.970812,
4.549,4.969497,
4.55,4.969168,
4.551,4.970812,
4.552,4.968181,
4.553,4.966866,
4.554,4.966866,
4.555,4.967853,
4.556,4.96851,
4.557,4.966537,
4.558,4.967195,
4.559,4.967853,
4.56,4.966537,
4.561,4.96588,
4.562,4.965222,
4.563,4.966537,
4.564,4.967524,
4.565,4.966866,
4.566,4.966866,
4.567,4.966537,
4.568,4.966537,
4.569,4.966537,
4.57,4.966866,
4.571,4.966866,
4.572,4.96851,
4.573,4.969825,
4.574,4.969825,
4.575,4.969497,
4.576,4.968839,
4.577,4.968839,
4.578,4.969825,
4.579,4.968181,
4.58,4.96851,
4.581,4.970154,
4.582,4.970812,
4.583,4.970154,
4.584,4.969168,
4.585,4.967853,
4.586,4.968839,
4.587,4.969497,
4.588,4.967853,
4.589,4.967524,
4.59,4.968839,
4.591,4.96851,
4.592,4.96851,
4.593,4.96588,
4.594,4.965551,
4.595,4.967524,
4.596,4.968839,
4.597,4.96588,
4.598,4.966209,
4.599,4.967853,
4.6,4.969497,
4.601,4.96851,
4.602,4.966209,
4.603,4.967195,
4.604,4.968839,
4.605,4.968181,
4.606,4.967524,
4.607,4.96851,
4.608,4.969825,
4.609,4.970483,
4.61,4.96851,
4.611,4.968181,
4.612,4.971469,
4.613,4.972127,
4.614,4.970483,
4.615,4.970483,
4.616,4.971798,
4.617,4.972785,
4.618,4.970483,
4.619,4.969497,
4.62,4.969825,
4.621,4.971798,
4.622,4.971798,
4.623,4.970812,
4.624,4.971141,
4.625,4.971141,
4.626,4.971141,
4.627,4.96851,
4.628,4.967853,
4.629,4.968181,
4.63,4.96851,
4.631,4.967853,
4.632,4.967195,
4.633,4.96588,
4.634,4.966537,
4.635,4.966209,
4.636,4.966209,
4.637,4.964565,
4.638,4.96588,
4.639,4.967853,
4.64,4.967195,
4.641,4.966537,
4.642,4.967524,
4.643,4.967853,
4.644,4.966866,
4.645,4.965551,
4.646,4.96588,
4.647,4.967524,
4.648,4.969168,
4.649,4.970154,
4.65,4.970154,
4.651,4.969497,
4.652,4.970483,
4.653,4.970483,
4.654,4.969168,
4.655,4.969168,
4.656,4.970154,
4.657,4.971469,
4.658,4.971798,
4.659,4.970154,
4.66,4.970483,
4.661,4.970812,
4.662,4.971141,
4.663,4.969825,
4.664,4.969825,
4.665,4.971141,
4.666,4.971469,
4.667,4.970812,
4.668,4.96851,
4.669,4.966866,
4.67,4.968839,
4.671,0.123091,
4.672,0.094486,
4.673,0.087582,
4.674,0.086924,
4.675,0.087582,
4.676,0.086924,
4.677,0.086924,
4.678,0.086924,
4.679,0.086595,
4.68,0.087253,
4.681,0.086924,
4.682,0.087253,
4.683,0.087253,
4.684,0.087253,
4.685,0.086924,
4.686,0.087253,
4.687,0.087253,
4.688,0.086924,
4.689,0.086924,
4.69,0.086266,
4.691,0.086924,
4.692,0.086595,
4.693,0.087582,
4.694,0.086924,
4.695,0.086924,
4.696,0.086595,
4.697,0.086595,
4.698,0.087253,
4.699,0.086924,
4.7,0.086924,
4.701,0.087253,
4.702,0.087253,
4.703,0.086924,
4.704,0.086595,
4.705,0.086924,
4.706,0.086924,
4.707,0.106323,
4.708,4.965551,
4.709,4.967524,
4.71,4.966866,
4.711,4.965222,
4.712,4.966866,
4.713,4.966209,
4.714,4.968181,
4.715,4.96851,
4.716,4.967853,
4.717,4.967195,
4.718,4.968181,
4.719,4.967524,
4.72,4.967195,
4.721,4.967195,
4.722,4.967853,
4.723,4.969825,
4.724,4.970154,
4.725,4.969825,
4.726,4.969497,
4.727,4.970483,
4.728,4.971798,
4.729,4.971141,
4.73,4.970483,
4.731,4.971798,
4.732,4.973113,
4.733,4.972456,
4.734,4.971469,
4.735,4.970154,
4.736,4.971798,
4.737,4.971469,
4.738,4.970483,
4.739,4.970483,
4.74,4.971469,
4.741,4.971798,
4.742,4.971798,
4.743,4.967195,
4.744,4.968181,
4.745,4.968181,
4.746,4.968181,
4.747,4.967195,
4.748,4.966537,
4.749,4.966866,
4.75,4.967853,
4.751,4.966866,
4.752,4.965222,
4.753,4.965551,
4.754,4.967195,
4.755,4.967853,
4.756,4.966537,
4.757,4.96588,
4.758,4.96588,
4.759,4.967853,
4.76,4.967853,
4.761,4.966209,
4.762,4.96588,
4.763,4.96851,
4.764,4.969825,
4.765,4.96851,
4.766,4.968839,
4.767,4.969497,
4.768,4.970483,
4.769,4.970812,
4.77,4.968181,
4.771,4.96851,
4.772,4.971469,
4.773,4.971141,
4.774,4.969825,
4.775,4.969497,
4.776,4.970483,
4.777,4.970154,
4.778,4.969825,
4.779,4.968839,
4.78,4.969825,
4.781,4.971141,
4.782,4.970483,
4.783,4.969168,
4.784,4.969168,
4.785,4.96851,
4.786,4.968839,
4.787,4.967853,
4.788,4.967853,
4.789,4.968839,
4.79,4.969497,
4.791,4.96851,
4.792,4.96851,
4.793,4.96851,
4.794,4.966866,
4.795,4.969168,
4.796,4.967853,
4.797,4.967195,
4.798,4.969168,
4.799,4.969497,
4.8,4.969497,
4.801,4.96851,
4.802,4.968181,
4.803,4.968839,
4.804,4.971469,
4.805,4.971141,
4.806,4.969825,
4.807,4.971141,
4.808,4.971469,
4.809,4.972456,
4.81,4.969168,
4.811,4.968839,
4.812,4.969497,
4.813,4.971141,
4.814,4.970154,
4.815,4.969825,
4.816,4.969825,
4.817,4.970812,
4.818,4.969168,
4.819,4.967524,
4.82,4.966537,
4.821,4.967524,
4.822,4.96851,
4.823,4.966866,
4.824,4.966209,
4.825,4.967195,
4.826,4.967853,
4.827,4.965222,
4.828,4.965222,
4.829,4.965551,
4.83,4.967853,
4.831,4.96851,
4.832,4.96588,
4.833,4.966866,
4.834,4.968181,
4.835,4.966866,
4.836,4.966866,
4.837,4.966209,
4.838,4.967195,
4.839,4.969168,
4.84,4.969497,
4.841,4.968839,
4.842,4.969497,
4.843,4.969168,
4.844,4.970483,
4.845,4.970812,
4.846,4.969168,
4.847,4.969497,
4.848,4.971469,
4.849,4.971798,
4.85,4.971798,
4.851,4.969825,
4.852,4.969168,
4.853,4.970812,
4.854,4.970483,
4.855,4.970483,
4.856,4.970812,
4.857,4.971141,
4.858,4.971141,
4.859,4.970154,
4.86,4.968181,
4.861,4.967524,
4.862,4.96851,
4.863,4.969168,
4.864,4.968181,
4.865,4.967195,
4.866,4.969825,
4.867,4.970483,
4.868,4.96851,
4.869,4.966866,
4.87,4.967195,
4.871,4.969168,
4.872,4.969168,
4.873,4.967524,
4.874,4.96851,
4.875,4.969168,
4.876,4.969168,
4.877,4.967524,
4.878,4.967195,
4.879,4.968839,
4.88,4.970154,
4.881,4.969168,
4.882,4.969497,
4.883,4.969497,
4.884,4.970154,
4.885,4.969825,
4.886,4.967853,
4.887,4.968181,
4.888,4.969168,
4.889,4.971141,
4.89,4.970483,
4.891,4.96851,
4.892,4.969497,
4.893,4.970154,
4.894,4.969168,
4.895,4.968839,
4.896,4.967195,
4.897,4.967853,
4.898,4.969825,
4.899,4.968839,
4.9,4.967853,
4.901,4.96588,
4.902,4.966537,
4.903,4.966866,
4.904,4.966537,
4.905,4.964893,
4.906,4.967853,
4.907,4.968839,
4.908,4.969497,
4.909,4.967524,
4.91,4.966537,
4.911,4.967524,
4.912,4.969168,
4.913,4.967524,
4.914,4.966866,
4.915,4.970483,
4.916,4.970483,
4.917,4.970483,
4.918,4.969497,
4.919,4.969168,
4.92,4.971798,
4.921,4.971141,
4.922,4.970154,
4.923,4.971141,
4.924,4.972456,
4.925,4.973442,
4.926,4.971798,
4.927,4.968839,
4.928,4.969825,
4.929,4.971141,
4.93,4.971798,
4.931,4.970483,
4.932,4.969825,
4.933,4.970812,
4.934,4.971798,
4.935,4.96851,
4.936,4.967524,
4.937,4.968181,
4.938,4.969168,
4.939,4.96851,
4.94,4.967195,
4.941,4.967524,
4.942,4.969825,
4.943,4.96851,
4.944,4.966209,
4.945,4.966537,
4.946,4.967853,
4.947,4.967853,
4.948,4.96851,
4.949,4.967195,
4.95,4.967853,
4.951,4.968839,
4.952,4.966866,
4.953,4.96588,
4.954,4.967195,
4.955,4.968839,
4.956,4.970154,
4.957,4.96851,
4.958,4.968839,
4.959,4.970154,
4.96,4.969497,
4.961,4.969168,
4.962,4.96851,
4.963,4.968181,
4.964,4.970483,
4.965,4.970483,
4.966,4.969497,
4.967,4.968181,
4.968,4.968839,
4.969,4.969168,
4.97,4.969497,
4.971,4.967853,
4.972,4.96851,
4.973,4.969825,
4.974,4.969168,
4.975,4.967195,
4.976,4.96588,
4.977,4.967195,
4.978,4.967195,
4.979,4.966537,
4.98,4.966209,
4.981,4.965551,
4.982,4.96851,
4.983,4.969825,
4.984,4.967195,
4.985,4.966209,
4.986,4.966866,
4.987,4.968181,
4.988,4.967195,
4.989,4.966866,
4.99,4.968181,
4.991,4.969825,
4.992,4.970812,
4.993,4.96851,
4.994,4.967853,
4.995,4.969825,
4.996,4.972127,
4.997,4.971141,
4.998,4.970154,
4.999,4.970483,
5,4.971469,
5.001,4.972785,
5.002,4.970483,
5.003,4.968839,
5.004,4.969168,
5.005,4.972456,
5.006,4.971469,
5.007,4.970483,
5.008,4.969825,
5.009,4.971469,
5.01,4.971798,
5.011,4.969497,
5.012,4.967524,
5.013,4.967524,
5.014,4.969168,
5.015,4.970154,
5.016,4.96851,
5.017,4.967195,
5.018,4.967853,
5.019,4.968181,
5.02,4.967524,
5.021,4.966537,
5.022,4.967195,
5.023,4.968839,
5.024,4.968839,
5.025,4.967195,
5.026,4.966537,
5.027,4.966537,
5.028,4.967195,
5.029,4.966866,
5.03,4.965551,
5.031,4.967524,
5.032,4.969168,
5.033,4.970483,
5.034,4.968181,
5.035,4.967524,
5.036,4.969168,
5.037,4.970483,
5.038,4.967853,
5.039,4.96851,
5.04,4.970154,
5.041,4.970483,
5.042,4.970483,
5.043,4.96851,
5.044,4.967524,
5.045,4.969168,
5.046,4.969825,
5.047,4.96851,
5.048,4.968181,
5.049,4.969825,
5.05,4.970812,
5.051,4.970154,
5.052,4.966866,
5.053,4.966537,
5.054,4.968181,
5.055,4.968839,
5.056,4.967853,
5.057,4.968181,
5.058,4.968181,
5.059,4.968839,
5.06,4.969168,
5.061,4.966866,
5.062,4.967524,
5.063,4.969497,
5.064,4.969825,
5.065,4.969168,
5.066,4.967853,
5.067,4.96851,
5.068,4.96851,
5.069,4.969497,
5.07,4.968181,
5.071,4.969168,
5.072,4.971141,
5.073,4.971798,
5.074,4.971141,
5.075,4.969168,
5.076,4.970812,
5.077,4.970154,
5.078,4.970154,
5.079,4.969825,
5.08,4.968839,
5.081,4.970483,
5.082,4.971469,
5.083,4.969825,
5.084,4.969168,
5.085,4.968839,
5.086,4.970154,
5.087,4.968181,
5.088,4.967524,
5.089,4.967853,
5.09,4.96851,
5.091,4.96851,
5.092,4.967195,
5.093,4.964893,
5.094,4.966209,
5.095,4.967524,
5.096,4.96588,
5.097,4.964893,
5.098,4.96588,
5.099,4.967853,
5.1,4.968181,
5.101,4.966866,
5.102,4.964565,
5.103,4.966537,
5.104,4.966866,
5.105,4.967853,
5.106,4.96588,
5.107,4.966866,
5.108,4.970483,
5.109,4.970154,
5.11,4.967195,
5.111,4.967524,
5.112,4.970483,
5.113,4.971141,
5.114,4.970483,
5.115,4.969825,
5.116,4.972456,
5.117,4.973113,
5.118,4.969825,
5.119,4.969168,
5.12,4.970154,
5.121,4.972127,
5.122,4.971141,
5.123,4.969825,
5.124,4.970483,
5.125,4.972127,
5.126,4.972127,
5.127,4.96851,
5.128,4.967853,
5.129,4.969168,
5.13,4.969497,
5.131,4.96851,
5.132,4.967524,
5.133,4.967853,
5.134,4.968839,
5.135,4.968181,
5.136,4.967195,
5.137,4.967195,
5.138,4.968839,
5.139,4.969168,
5.14,4.968181,
5.141,4.96851,
5.142,4.968181,
5.143,4.969497,
5.144,4.968181,
5.145,4.967853,
5.146,4.968181,
5.147,4.970154,
5.148,4.972127,
5.149,4.971798,
5.15,4.970483,
5.151,4.970812,
5.152,4.971141,
5.153,4.970812,
5.154,4.969825,
5.155,4.969168,
5.156,4.971798,
5.157,4.972127,
5.158,4.970812,
5.159,4.969825,
5.16,4.969168,
5.161,4.970812,
5.162,4.970812,
5.163,4.968839,
5.164,4.969497,
5.165,4.969825,
5.166,4.969168,
5.167,4.969168,
5.168,4.966209,
5.169,4.966209,
5.17,4.966866,
5.171,4.966537,
5.172,4.966209,
5.173,4.966866,
5.174,4.967853,
5.175,4.968181,
5.176,4.96588,
5.177,4.963907,
5.178,4.966209,
5.179,4.966866,
5.18,4.967195,
5.181,4.966537,
5.182,4.966537,
5.183,4.968181,
5.184,4.968839,
5.185,4.966866,
5.186,4.966537,
5.187,4.967524,
5.188,4.969825,
5.189,4.970483,
5.19,4.969168,
5.191,4.969497,
5.192,4.971469,
5.193,4.969497,
5.194,4.96851,
5.195,4.967853,
5.196,4.968839,
5.197,4.971141,
5.198,4.970812,
5.199,4.969168,
5.2,4.970483,
5.201,4.971141,
5.202,4.969825,
5.203,4.967853,
5.204,4.966537,
5.205,4.968181,
5.206,4.968839,
5.207,4.967853,
5.208,4.967853,
5.209,4.966866,
5.21,4.96851,
5.211,4.967853,
5.212,4.967195,
5.213,4.967524,
5.214,4.96851,
5.215,4.970154,
5.216,4.969825,
5.217,4.968839,
5.218,4.967195,
5.219,4.96851,
5.22,4.969497,
5.221,4.968181,
5.222,4.967524,
5.223,4.969497,
5.224,4.971141,
5.225,4.971798,
5.226,4.969825,
5.227,4.969168,
5.228,4.970154,
5.229,4.971141,
5.23,4.969825,
5.231,4.969497,
5.232,4.970812,
5.233,4.971141,
5.234,4.970483,
5.235,4.966866,
5.236,4.967524,
5.237,4.970483,
5.238,4.969825,
5.239,4.968181,
5.24,4.968181,
5.241,4.969168,
5.242,4.969825,
5.243,4.966866,
5.244,4.965222,
5.245,4.966209,
5.246,4.967524,
5.247,4.967195,
5.248,4.966209,
5.249,4.965551,
5.25,4.966866,
5.251,4.968181,
5.252,4.965551,
5.253,4.964893,
5.254,4.965551,
5.255,4.967195,
5.256,4.967195,
5.257,4.966537,
5.258,4.966866,
5.259,4.968839,
5.26,4.967524,
5.261,4.967524,
5.262,4.966866,
5.263,4.968839,
5.264,4.970483,
5.265,4.971141,
5.266,4.969825,
5.267,4.970154,
5.268,4.971141,
5.269,4.971141,
5.27,4.969825,
5.271,4.969497,
5.272,4.971141,
5.273,4.971798,
5.274,4.971141,
5.275,4.971141,
5.276,4.969497,
5.277,4.970812,
5.278,4.970812,
5.279,4.970154,
5.28,4.968839,
5.281,4.969825,
5.282,4.970483,
5.283,4.969497,
5.284,4.968181,
5.285,4.966537,
5.286,4.967853,
5.287,4.968181,
5.288,4.967195,
5.289,4.967524,
5.29,4.96851,
5.291,4.969497,
5.292,4.96851,
5.293,4.966866,
5.294,4.967195,
5.295,4.968181,
5.296,4.968839,
5.297,4.967853,
5.298,4.968181,
5.299,4.970483,
5.3,4.970483,
5.301,4.969825,
5.302,4.968839,
5.303,4.969497,
5.304,4.971141,
5.305,4.971469,
5.306,4.970154,
5.307,4.970483,
5.308,4.971141,
5.309,4.971798,
5.31,4.970483,
5.311,4.968839,
5.312,4.969168,
5.313,4.970812,
5.314,4.970812,
5.315,4.970483,
5.316,4.970154,
5.317,4.969497,
5.318,4.970154,
5.319,4.96851,
5.32,4.967524,
5.321,4.967195,
5.322,4.967195,
5.323,4.969168,
5.324,4.967524,
5.325,4.966209,
5.326,4.965222,
5.327,4.96588,
5.328,4.966537,
5.329,4.966209,
5.33,4.966209,
5.331,4.967853,
5.332,4.968181,
5.333,4.967853,
5.334,4.96588,
5.335,4.965222,
5.336,4.966866,
5.337,4.966866,
5.338,4.96588,
5.339,4.967524,
5.34,4.968839,
5.341,4.969825,
5.342,4.969497,
5.343,4.967853,
5.344,4.96851,
5.345,4.969497,
5.346,4.969497,
5.347,4.968181,
5.348,4.968181,
5.349,4.970154,
5.35,4.971469,
5.351,4.96851,
5.352,4.967195,
5.353,4.968181,
5.354,4.969168,
5.355,4.971141,
5.356,4.967853,
5.357,4.966537,
5.358,4.969825,
5.359,4.968181,
5.36,4.965551,
5.361,4.965551,
5.362,4.965551,
5.363,4.967853,
5.364,4.967524,
5.365,4.96588,
5.366,4.96588,
5.367,4.967524,
5.368,4.967853,
5.369,4.966209,
5.37,4.964236,
5.371,4.966209,
5.372,4.967195,
5.373,4.967524,
5.374,4.966866,
5.375,4.966537,
5.376,4.968181,
5.377,4.968839,
5.378,4.968839,
5.379,4.968839,
5.38,4.969168,
5.381,4.971469,
5.382,4.972785,
5.383,4.971469,
5.384,4.971141,
5.385,4.970483,
5.386,4.970812,
5.387,4.970483,
5.388,4.969497,
5.389,4.970154,
5.39,4.971798,
5.391,4.971798,
5.392,4.970812,
5.393,4.969497,
5.394,4.969168,
5.395,4.970812,
5.396,4.969168,
5.397,4.96851,
5.398,4.967524,
5.399,4.969168,
5.4,4.969168,
5.401,4.969168,
5.402,4.966209,
5.403,4.966537,
5.404,4.968839,
5.405,4.96851,
5.406,4.967195,
5.407,4.967195,
5.408,4.967853,
5.409,4.969825,
5.41,4.967195,
5.411,4.966866,
5.412,4.966209,
5.413,4.968181,
5.414,4.969825,
5.415,4.967195,
5.416,4.96851,
5.417,4.969497,
5.418,4.969168,
5.419,4.969825,
5.42,4.967853,
5.421,4.96851,
5.422,4.970483,
5.423,4.970154,
5.424,4.969168,
5.425,4.968181,
5.426,4.969825,
5.427,4.969497,
5.428,4.967853,
5.429,4.96851,
5.43,4.969168,
5.431,4.970154,
5.432,4.970483,
5.433,4.969168,
5.434,4.967853,
5.435,4.967853,
5.436,4.967524,
5.437,4.96588,
5.438,4.966209,
5.439,4.96588,
5.44,4.967853,
5.441,4.967524,
5.442,4.967524,
5.443,4.96588,
5.444,4.966537,
5.445,4.967853,
5.446,4.967853,
5.447,4.966866,
5.448,4.968181,
5.449,4.969825,
5.45,4.969168,
5.451,4.968181,
5.452,4.965551,
5.453,4.968839,
5.454,4.970483,
5.455,4.969168,
5.456,4.969497,
5.457,4.971798,
5.458,4.972127,
5.459,4.972785,
5.46,4.969497,
5.461,4.969825,
5.462,4.970483,
5.463,4.971798,
5.464,4.970812,
5.465,4.970483,
5.466,4.970154,
5.467,4.971798,
5.468,4.969825,
5.469,4.96851,
5.47,4.969497,
5.471,4.969497,
5.472,4.970154,
5.473,4.969168,
5.474,4.966866,
5.475,4.967195,
5.476,4.968839,
5.477,4.966537,
5.478,4.964893,
5.479,4.964236,
5.48,4.967195,
5.481,4.967524,
5.482,4.96588,
5.483,4.966537,
5.484,4.966866,
5.485,4.967195,
5.486,4.966537,
5.487,4.964893,
5.488,4.965551,
5.489,4.967524,
5.49,4.967524,
5.491,4.966866,
5.492,4.967853,
5.493,4.968181,
5.494,4.970154,
5.495,4.969168,
5.496,4.968839,
5.497,4.969825,
5.498,4.971798,
5.499,4.972456,
5.5,4.972127,
5.501,4.969168,
5.502,4.970154,
5.503,4.971141,
5.504,4.971798,
5.505,4.969825,
5.506,4.970483,
5.507,4.972456,
5.508,4.972127,
5.509,4.971469,
5.51,4.96851,
5.511,4.96851,
5.512,4.969825,
5.513,4.970154,
5.514,4.966866,
5.515,4.967524,
5.516,4.969497,
5.517,4.969825,
5.518,4.967853,
5.519,4.966209,
5.52,4.966537,
5.521,4.969168,
5.522,4.968839,
5.523,4.966209,
5.524,4.967524,
5.525,4.968181,
5.526,4.96851,
5.527,4.966866,
5.528,4.965222,
5.529,4.966209,
5.53,4.96851,
5.531,4.970483,
5.532,4.968839,
5.533,4.967853,
5.534,4.968839,
5.535,4.970154,
5.536,4.969825,
5.537,4.967853,
5.538,4.967853,
5.539,4.970483,
5.54,4.971469,
5.541,4.969497,
5.542,4.968839,
5.543,4.968181,
5.544,4.96851,
5.545,4.969497,
5.546,4.968181,
5.547,4.968181,
5.548,4.969825,
5.549,4.969825,
5.55,4.969168,
5.551,4.966537,
5.552,4.96588,
5.553,4.967853,
5.554,4.966866,
5.555,4.966209,
5.556,4.967195,
5.557,4.968181,
5.558,4.969168,
5.559,4.967853,
5.56,4.96588,
5.561,4.967853,
5.562,4.968839,
5.563,4.968181,
5.564,4.967524,
5.565,4.969168,
5.566,4.969825,
5.567,4.969825,
5.568,4.967853,
5.569,4.968839,
5.57,4.971141,
5.571,4.969497,
5.572,4.970483,
5.573,4.970483,
5.574,4.971798,
5.575,4.973771,
5.576,4.970154,
5.577,4.969168,
5.578,4.970154,
5.579,4.971469,
5.58,4.971798,
5.581,4.969497,
5.582,4.970154,
5.583,4.971798,
5.584,4.972456,
5.585,4.970154,
5.586,4.969168,
5.587,4.968839,
5.588,4.970154,
5.589,4.969825,
5.59,4.967853,
5.591,4.968839,
5.592,4.968839,
5.593,4.96851,
5.594,4.966866,
5.595,4.965551,
5.596,4.967524,
5.597,4.969168,
5.598,4.967853,
5.599,4.966209,
5.6,4.967524,
5.601,4.967853,
5.602,4.96851,
5.603,4.96588,
5.604,4.965222,
5.605,4.967524,
5.606,4.967853,
5.607,4.96851,
5.608,4.967195,
5.609,4.969168,
5.61,4.970154,
5.611,4.969825,
5.612,4.967853,
5.613,4.96851,
5.614,4.970154,
5.615,4.970483,
5.616,4.970154,
5.617,4.968839,
5.618,4.968181,
5.619,4.969168,
5.62,4.970154,
5.621,4.967853,
5.622,4.967853,
5.623,4.970154,
5.624,4.970812,
5.625,4.969497,
5.626,4.966209,
5.627,4.96588,
5.628,4.967853,
5.629,4.967853,
5.63,4.965551,
5.631,4.96588,
5.632,4.966866,
5.633,4.968839,
5.634,4.96851,
5.635,4.965222,
5.636,4.964565,
5.637,4.967524,
5.638,4.967524,
5.639,4.967853,
5.64,4.966866,
5.641,4.968839,
5.642,4.969825,
5.643,4.967524,
5.644,4.966866,
5.645,4.968181,
5.646,4.969825,
5.647,4.970483,
5.648,4.970483,
5.649,4.970812,
5.65,4.972127,
5.651,4.971798,
5.652,4.971469,
5.653,4.970154,
5.654,4.970154,
5.655,4.971469,
5.656,4.972456,
5.657,4.970154,
5.658,4.970812,
5.659,4.971141,
5.66,4.970483,
5.661,4.971141,
5.662,4.969168,
5.663,4.969825,
5.664,4.969497,
5.665,4.970812,
5.666,4.970483,
5.667,4.96851,
5.668,4.967195,
5.669,4.967853,
5.67,4.96851,
5.671,4.967853,
5.672,4.966537,
5.673,4.967524,
5.674,4.968839,
5.675,4.967853,
5.676,4.966209,
5.677,4.965551,
5.678,4.966537,
5.679,4.966537,
5.68,4.966537,
5.681,4.966537,
5.682,4.966537,
5.683,4.968181,
5.684,4.970483,
5.685,4.967524,
5.686,4.967195,
5.687,4.969168,
5.688,4.969825,
5.689,4.969825,
5.69,4.96851,
5.691,4.970154,
5.692,4.971141,
5.693,4.96851,
5.694,4.966866,
5.695,4.96851,
5.696,4.969168,
5.697,4.969825,
5.698,4.969497,
5.699,4.969168,
5.7,4.970483,
5.701,4.969497,
5.702,4.967195,
5.703,4.966537,
5.704,4.967524,
5.705,4.968181,
5.706,4.967195,
5.707,4.96588,
5.708,4.967195,
5.709,4.968839,
5.71,4.967195,
5.711,4.96588,
5.712,4.965222,
5.713,4.967524,
5.714,4.969497,
5.715,4.96851,
5.716,4.967195,
5.717,4.967853,
5.718,4.96851,
5.719,4.968181,
5.72,4.967195,
5.721,4.967195,
5.722,4.969168,
5.723,4.971141,
5.724,4.970812,
5.725,4.970812,
5.726,4.970483,
5.727,4.971141,
5.728,4.971798,
5.729,4.970483,
5.73,4.970483,
5.731,4.971469,
5.732,4.972785,
5.733,4.972127,
5.734,4.969825,
5.735,4.969825,
5.736,4.970812,
5.737,4.970812,
5.738,4.970812,
5.739,4.970154,
5.74,4.972127,
5.741,4.971798,
5.742,4.968839,
5.743,4.967853,
5.744,4.968181,
5.745,4.96851,
5.746,4.967853,
5.747,4.966866,
5.748,4.968181,
5.749,4.969497,
5.75,4.969825,
5.751,4.966866,
5.752,4.966537,
5.753,4.967853,
5.754,4.968839,
5.755,4.967853,
5.756,4.967195,
5.757,4.968839,
5.758,4.968839,
5.759,4.968839,
5.76,4.966866,
5.761,4.966866,
5.762,4.968839,
5.763,4.969825,
5.764,4.969168,
5.765,4.969168,
5.766,4.969825,
5.767,4.970812,
5.768,4.969825,
5.769,4.96851,
5.77,4.967195,
5.771,4.969168,
5.772,4.970154,
5.773,4.969825,
5.774,4.968839,
5.775,4.968839,
5.776,4.969825,
5.777,4.969168,
5.778,4.967853,
5.779,4.967524,
5.78,4.967524,
5.781,4.969168,
5.782,4.968839,
5.783,4.968181,
5.784,4.966209,
5.785,4.966866,
5.786,4.967524,
5.787,4.966537,
5.788,4.966537,
5.789,4.966866,
5.79,4.969497,
5.791,4.967853,
5.792,4.967853,
5.793,4.967195,
5.794,4.96851,
5.795,4.968181,
5.796,4.967524,
5.797,4.967524,
5.798,4.970154,
5.799,4.971798,
5.8,4.970483,
5.801,4.968839,
5.802,4.970154,
5.803,4.971141,
5.804,4.971141,
5.805,4.970483,
5.806,4.971141,
5.807,4.973113,
5.808,4.973113,
5.809,4.971141,
5.81,4.969168,
5.811,4.970483,
5.812,4.971798,
5.813,4.971469,
5.814,4.968839,
5.815,4.970154,
5.816,4.972127,
5.817,4.971469,
5.818,4.96851,
5.819,4.968181,
5.82,4.968181,
5.821,4.970154,
5.822,4.96851,
5.823,4.967524,
5.824,4.968839,
5.825,4.969168,
5.826,4.968839,
5.827,4.96588,
5.828,4.964893,
5.829,4.967195,
5.83,4.96851,
5.831,4.966866,
5.832,4.966537,
5.833,4.966537,
5.834,4.968839,
5.835,4.967524,
5.836,4.964565,
5.837,4.966209,
5.838,4.968839,
5.839,4.970154,
5.84,4.970154,
5.841,4.967853,
5.842,4.970154,
5.843,4.970154,
5.844,4.96851,
5.845,4.967853,
5.846,4.96851,
5.847,4.969825,
5.848,4.971469,
5.849,4.968839,
5.85,4.969497,
5.851,4.969497,
5.852,4.968839,
5.853,4.969168,
5.854,4.96851,
5.855,4.967524,
5.856,4.969168,
5.857,4.968839,
5.858,0.140188,
5.859,0.088239,
5.86,0.087253,
5.861,0.087253,
5.862,0.086924,
5.863,0.086595,
5.864,0.087582,
5.865,0.087253,
5.866,0.086924,
5.867,0.086924,
5.868,0.087253,
5.869,0.086924,
5.87,0.086924,
5.871,0.087253,
5.872,0.087253,
5.873,0.086924,
5.874,0.086924,
5.875,0.087582,
5.876,0.087253,
5.877,0.086595,
5.878,0.087582,
5.879,0.086595,
5.88,0.087253,
5.881,0.086595,
5.882,0.086924,
5.883,0.087253,
5.884,0.086924,
5.885,0.087253,
5.886,0.086924,
5.887,0.086595,
5.888,0.086924,
5.889,0.087253,
5.89,0.086924,
5.891,0.086924,
5.892,0.087582,
5.893,0.087253,
5.894,0.095144,
5.895,0.487064,
5.896,4.968181,
5.897,4.969168,
5.898,4.967524,
5.899,4.967195,
5.9,4.967195,
5.901,4.96851,
5.902,4.966537,
5.903,4.96588,
5.904,4.96588,
5.905,4.967853,
5.906,4.96851,
5.907,4.967853,
5.908,4.96588,
5.909,4.966209,
5.91,4.967524,
5.911,4.966866,
5.912,4.96588,
5.913,4.966209,
5.914,4.96851,
5.915,4.970483,
5.916,4.969497,
5.917,4.969168,
5.918,4.96851,
5.919,4.969497,
5.92,4.969497,
5.921,4.968839,
5.922,4.967853,
5.923,4.970483,
5.924,4.971141,
5.925,4.970812,
5.926,4.968839,
5.927,4.967195,
5.928,4.969825,
5.929,4.971141,
5.93,4.968839,
5.931,4.969497,
5.932,4.969825,
5.933,4.971141,
5.934,4.970154,
5.935,4.967195,
5.936,4.966866,
5.937,4.968181,
5.938,4.969168,
5.939,4.968181,
5.94,4.967853,
5.941,4.96851,
5.942,4.969825,
5.943,4.967524,
5.944,4.966537,
5.945,4.967524,
5.946,4.969168,
5.947,4.969825,
5.948,4.968839,
5.949,4.967524,
5.95,4.96851,
5.951,4.969497,
5.952,4.969825,
5.953,4.968181,
5.954,4.969168,
5.955,4.971469,
5.956,4.972127,
5.957,4.971469,
5.958,4.970154,
5.959,4.970154,
5.96,4.971469,
5.961,4.970812,
5.962,4.969825,
5.963,4.968839,
5.964,4.970812,
5.965,4.971798,
5.966,4.970812,
5.967,4.969497,
5.968,4.968839,
5.969,4.969825,
5.97,4.969168,
5.971,4.967524,
5.972,4.967524,
5.973,4.968181,
5.974,4.968839,
5.975,4.967195,
5.976,4.965222,
5.977,4.964236,
5.978,4.965551,
5.979,4.967195,
5.98,4.96588,
5.981,4.96588,
5.982,4.966866,
5.983,4.968181,
5.984,4.967853,
5.985,4.965222,
5.986,4.965551,
5.987,4.967524,
5.988,4.967524,
5.989,4.966537,
5.99,4.966209,
5.991,4.968181,
5.992,4.970154,
5.993,4.969497,
5.994,4.96851,
5.995,4.96851,
5.996,4.970154,
5.997,4.971469,
5.998,4.971141,
5.999,4.970154,
6,4.971798,
6.001,4.972456,
6.002,4.970812,
6.003,4.969825,
6.004,4.970154,
6.005,4.971141,
6.006,4.972456,
6.007,4.970812,
6.008,4.969825,
6.009,4.970483,
6.01,4.970154,
6.011,4.96851,
6.012,4.968181,
6.013,4.967853,
6.014,4.969168,
6.015,4.969825,
6.016,4.967524,
6.017,4.967853,
6.018,4.968181,
6.019,4.967853,
6.02,4.968181,
6.021,4.966866,
6.022,4.967853,
6.023,4.969168,
6.024,4.968839,
6.025,4.96851,
6.026,4.967195,
6.027,4.966866,
6.028,4.968839,
6.029,4.96851,
6.03,4.967524,
6.031,4.969825,
6.032,4.971469,
6.033,4.970154,
6.034,4.969825,
6.035,4.967524,
6.036,4.969497,
6.037,4.970812,
6.038,4.96851,
6.039,4.96851,
6.04,4.969168,
6.041,4.970812,
6.042,4.970154,
6.043,4.966866,
6.044,4.966209,
6.045,4.968839,
6.046,4.969168,
6.047,4.969497,
6.048,4.967853,
6.049,4.967195,
6.05,4.969168,
6.051,4.967853,
6.052,4.965551,
6.053,4.965551,
6.054,4.966866,
6.055,4.967853,
6.056,4.967195,
6.057,4.965222,
6.058,4.967853,
6.059,4.968181,
6.06,4.966537,
6.061,4.965222,
6.062,4.964893,
6.063,4.967195,
6.064,4.969825,
6.065,4.967524,
6.066,4.968181,
6.067,4.96851,
6.068,4.969168,
6.069,4.970154,
6.07,4.96851,
6.071,4.969825,
6.072,4.971141,
6.073,4.971798,
6.074,4.971141,
6.075,4.970812,
6.076,4.971141,
6.077,4.971141,
6.078,4.970483,
6.079,4.970483,
6.08,4.969497,
6.081,4.971141,
6.082,4.973442,
6.083,4.971141,
6.084,4.969168,
6.085,4.969168,
6.086,4.969168,
6.087,4.969497,
6.088,4.967853,
6.089,4.967524,
6.09,4.968839,
6.091,4.969825,
6.092,4.967524,
6.093,4.96588,
6.094,4.96588,
6.095,4.967853,
6.096,4.96851,
6.097,4.96588,
6.098,4.966209,
6.099,4.96851,
6.1,4.968839,
6.101,4.967853,
6.102,4.965222,
6.103,4.96588,
6.104,4.968181,
6.105,4.967195,
6.106,4.966209,
6.107,4.968839,
6.108,4.969168,
6.109,4.970483,
6.11,4.96851,
6.111,4.967524,
6.112,4.969497,
6.113,4.970483,
6.114,4.969825,
6.115,4.969168,
6.116,4.96851,
6.117,4.969825,
6.118,4.969497,
6.119,4.967853,
6.12,4.968181,
6.121,4.968181,
6.122,4.970154,
6.123,4.970483,
6.124,4.967853,
6.125,4.96851,
6.126,4.967853,
6.127,4.967524,
6.128,4.968181,
6.129,4.966209,
6.13,4.966537,
6.131,4.969168,
6.132,4.968839,
6.133,4.969168,
6.134,4.967853,
6.135,4.966866,
6.136,4.968181,
6.137,4.967853,
6.138,4.966866,
6.139,4.967195,
6.14,4.968839,
6.141,4.970154,
6.142,4.968181,
6.143,4.967853,
6.144,4.968181,
6.145,4.970483,
6.146,4.970483,
6.147,4.970154,
6.148,4.970154,
6.149,4.972785,
6.15,4.973113,
6.151,4.970812,
6.152,4.969825,
6.153,4.970812,
6.154,4.971469,
6.155,4.971469,
6.156,4.970154,
6.157,4.970812,
6.158,4.971141,
6.159,4.971798,
6.16,4.971141,
6.161,4.968181,
6.162,4.967853,
6.163,4.969825,
6.164,4.969497,
6.165,4.967853,
6.166,4.967524,
6.167,4.966537,
6.168,4.968181,
6.169,4.966209,
6.17,4.964893,
6.171,4.966537,
6.172,4.967853,
6.173,4.968181,
6.174,4.96588,
6.175,4.96588,
6.176,4.967853,
6.177,4.966866,
6.178,4.964893,
6.179,4.96588,
6.18,4.965551,
6.181,4.96851,
6.182,4.968839,
6.183,4.967524,
6.184,4.968181,
6.185,4.968839,
6.186,4.969497,
6.187,4.96851,
6.188,4.967853,
6.189,4.970154,
6.19,4.970483,
6.191,4.969825,
6.192,4.969825,
6.193,4.968839,
6.194,4.970154,
6.195,4.970483,
6.196,4.969168,
6.197,4.968839,
6.198,4.971141,
6.199,4.971469,
6.2,4.972127,
6.201,4.969168,
6.202,4.967195,
6.203,4.969168,
6.204,4.969168,
6.205,4.96851,
6.206,4.968181,
6.207,4.969168,
6.208,4.970154,
6.209,4.969168,
6.21,4.966209,
6.211,4.966866,
6.212,4.968181,
6.213,4.96851,
6.214,4.967853,
6.215,4.96851,
6.216,4.969168,
6.217,4.969497,
6.218,4.967195,
6.219,4.966866,
6.22,4.968181,
6.221,4.969497,
6.222,4.970483,
6.223,4.969825,
6.224,4.971141,
6.225,4.971798,
6.226,4.971469,
6.227,4.969168,
6.228,4.969168,
6.229,4.969497,
6.23,4.972127,
6.231,4.971141,
6.232,4.970154,
6.233,4.969497,
6.234,4.971141,
6.235,4.969497,
6.236,4.96851,
6.237,4.96851,
6.238,4.970483,
6.239,4.969825,
6.24,4.968181,
6.241,4.967853,
6.242,4.968181,
6.243,4.967853,
6.244,4.966866,
6.245,4.964236,
6.246,4.965551,
6.247,4.966537,
6.248,4.967524,
6.249,4.966537,
6.25,4.965551,
6.251,4.966209,
6.252,4.966537,
6.253,4.966866,
6.254,4.965222,
6.255,4.96588,
6.256,4.96851,
6.257,4.967853,
6.258,4.967853,
6.259,4.967195,
6.26,4.967195,
6.261,4.968839,
6.262,4.969825,
6.263,4.967524,
6.264,4.969497,
6.265,4.970483,
6.266,4.971469,
6.267,4.971469,
6.268,4.967524,
6.269,4.969168,
6.27,4.970812,
6.271,4.970483,
6.272,4.969168,
6.273,4.969825,
6.274,4.971469,
6.275,4.972127,
6.276,4.970154,
6.277,4.968181,
6.278,4.969497,
6.279,4.969825,
6.28,4.969497,
6.281,4.968181,
6.282,4.967853,
6.283,4.969497,
6.284,4.969168,
6.285,4.966866,
6.286,4.966866,
6.287,4.966537,
6.288,4.968839,
6.289,4.969497,
6.29,4.967524,
6.291,4.968839,
6.292,4.969497,
6.293,4.96851,
6.294,4.96851,
6.295,4.966537,
6.296,4.967524,
6.297,4.970154,
6.298,4.970483,
6.299,4.969497,
6.3,4.969825,
6.301,4.969168,
6.302,4.969825,
6.303,4.970483,
6.304,4.970154,
6.305,4.970154,
6.306,4.971141,
6.307,4.972456,
6.308,4.969497,
6.309,4.96851,
6.31,4.969168,
6.311,4.969497,
6.312,4.969168,
6.313,4.968181,
6.314,4.967853,
6.315,4.969825,
6.316,4.970483,
6.317,4.967524,
6.318,4.96588,
6.319,4.96588,
6.32,4.966866,
6.321,4.967195,
6.322,4.965222,
6.323,4.966209,
6.324,4.967195,
6.325,4.968181,
6.326,4.966209,
6.327,4.964565,
6.328,4.966209,
6.329,4.967195,
6.33,4.967195,
6.331,4.966209,
6.332,4.967524,
6.333,4.967853,
6.334,4.969497,
6.335,4.966866,
6.336,4.966537,
6.337,4.96851,
6.338,4.970154,
6.339,4.971141,
6.34,4.970154,
6.341,4.971141,
6.342,4.972456,
6.343,4.971469,
6.344,4.970154,
6.345,4.970483,
6.346,4.970812,
6.347,4.971798,
6.348,4.971798,
6.349,4.970154,
6.35,4.971141,
6.351,4.971798,
6.352,4.970483,
6.353,4.969497,
6.354,4.969825,
6.355,4.970483,
6.356,4.970483,
6.357,4.969168,
6.358,4.968181,
6.359,4.968839,
6.36,4.968181,
6.361,4.967195,
6.362,4.966537,
6.363,4.966537,
6.364,4.968839,
6.365,4.968839,
6.366,4.968181,
6.367,4.966209,
6.368,4.966537,
6.369,4.967524,
6.37,4.967524,
6.371,4.96588,
6.372,4.96588,
6.373,4.968839,
6.374,4.969825,
6.375,4.96851,
6.376,4.966537,
6.377,4.967853,
6.378,4.969497,
6.379,4.96851,
6.38,4.968839,
6.381,4.969168,
6.382,4.970154,
6.383,4.971469,
6.384,4.96851,
6.385,4.967195,
6.386,4.96851,
6.387,4.969497,
6.388,4.969497,
6.389,4.967853,
6.39,4.968839,
6.391,4.971141,
6.392,4.970154,
6.393,4.967853,
6.394,4.966537,
6.395,4.968181,
6.396,4.969497,
6.397,4.967853,
6.398,4.967853,
6.399,4.968181,
6.4,4.970154,
6.401,4.968181,
6.402,4.967195,
6.403,4.966209,
6.404,4.969168,
6.405,4.969497,
6.406,4.967853,
6.407,4.967524,
6.408,4.969168,
6.409,4.969825,
6.41,4.968839,
6.411,4.966209,
6.412,4.967524,
6.413,4.970154,
6.414,4.971141,
6.415,4.970154,
6.416,4.969825,
6.417,4.969497,
6.418,4.970483,
6.419,4.970483,
6.42,4.96851,
6.421,4.96851,
6.422,4.971141,
6.423,4.972127,
6.424,4.969497,
6.425,4.968181,
6.426,4.969168,
6.427,4.969168,
6.428,4.969497,
6.429,4.967524,
6.43,4.967524,
6.431,4.96851,
6.432,4.969825,
6.433,4.96851,
6.434,4.966209,
6.435,4.965551,
6.436,4.966866,
6.437,4.966209,
6.438,4.965551,
6.439,4.96588,
6.44,4.966866,
6.441,4.967853,
6.442,4.966866,
6.443,4.96588,
6.444,4.966209,
6.445,4.967853,
6.446,4.966866,
6.447,4.966866,
6.448,4.96851,
6.449,4.968839,
6.45,4.96851,
6.451,4.967524,
6.452,4.968839,
6.453,4.969497,
6.454,4.969497,
6.455,4.969168,
6.456,4.970483,
6.457,4.970812,
6.458,4.972456,
6.459,4.970483,
6.46,4.969497,
6.461,4.970483,
6.462,4.971469,
6.463,4.971469,
6.464,4.970154,
6.465,4.970483,
6.466,4.971798,
6.467,4.972456,
6.468,4.968839,
6.469,4.969168,
6.47,4.969168,
6.471,4.970483,
6.472,4.968839,
6.473,4.967195,
6.474,4.968181,
6.475,4.968839,
6.476,4.96851,
6.477,4.96588,
6.478,4.965222,
6.479,4.967195,
6.48,4.96851,
6.481,4.967195,
6.482,4.966537,
6.483,4.96588,
6.484,4.967853,
6.485,4.966537,
6.486,4.965222,
6.487,4.964236,
6.488,4.967195,
6.489,4.969497,
6.49,4.967524,
6.491,4.967195,
6.492,4.969168,
6.493,4.969168,
6.494,4.96851,
6.495,4.967195,
6.496,4.967524,
6.497,4.969168,
6.498,4.970483,
6.499,4.970154,
6.5,4.969168,
6.501,4.968181,
6.502,4.969497,
6.503,4.968181,
6.504,4.967195,
6.505,4.969168,
6.506,4.969825,
6.507,4.969825,
6.508,4.969497,
6.509,4.967853,
6.51,4.968181,
6.511,4.968181,
6.512,4.967195,
6.513,4.966209,
6.514,4.967195,
6.515,4.969497,
6.516,4.969497,
6.517,4.967195,
6.518,4.966537,
6.519,4.967853,
6.52,4.967195,
6.521,4.967524,
6.522,4.967195,
6.523,4.968839,
6.524,4.970154,
6.525,4.970154,
6.526,4.967853,
6.527,4.967853,
6.528,4.969168,
6.529,4.971141,
6.53,4.969825,
6.531,4.970483,
6.532,4.972456,
6.533,4.972785,
6.534,4.972785,
6.535,4.968839,
6.536,4.969825,
6.537,4.971141,
6.538,4.971469,
6.539,4.970154,
6.54,4.970154,
6.541,4.971141,
6.542,4.972785,
6.543,4.969497,
6.544,4.967853,
6.545,4.969497,
6.546,4.969825,
6.547,4.970154,
6.548,4.968839,
6.549,4.968181,
6.55,4.969168,
6.551,4.967853,
6.552,4.966209,
6.553,4.966209,
6.554,4.967524,
6.555,4.96851,
6.556,4.968839,
6.557,4.967524,
6.558,4.966537,
6.559,4.967524,
6.56,4.966537,
6.561,4.966866,
6.562,4.964893,
6.563,4.966866,
6.564,4.96851,
6.565,4.968839,
6.566,4.967524,
6.567,4.968181,
6.568,4.967853,
6.569,4.968839,
6.57,4.96851,
6.571,4.96851,
6.572,4.969168,
6.573,4.970483,
6.574,4.970812,
6.575,4.969497,
6.576,4.967853,
6.577,4.969497,
6.578,4.969497,
6.579,4.969168,
6.58,4.96851,
6.581,4.96851,
6.582,4.971469,
6.583,4.971469,
6.584,4.967853,
6.585,4.967853,
6.586,4.969168,
6.587,4.96851,
6.588,4.967195,
6.589,4.967195,
6.59,4.967853,
6.591,4.969497,
6.592,4.967524,
6.593,4.965551,
6.594,4.966209,
6.595,4.967853,
6.596,4.968839,
6.597,4.967524,
6.598,4.966866,
6.599,4.969168,
6.6,4.970154,
6.601,4.968839,
6.602,4.966866,
6.603,4.96588,
6.604,4.969497,
6.605,4.970483,
6.606,4.969825,
6.607,4.969825,
6.608,4.971469,
6.609,4.972785,
6.61,4.971141,
6.611,4.969168,
6.612,4.969825,
6.613,4.971141,
6.614,4.972785,
6.615,4.972127,
6.616,4.971141,
6.617,4.971469,
6.618,4.971469,
6.619,4.970812,
6.62,4.968839,
6.621,4.971141,
6.622,4.971469,
6.623,4.971141,
6.624,4.969825,
6.625,4.968181,
6.626,4.969497,
6.627,4.967853,
6.628,4.966866,
6.629,4.96588,
6.63,4.966537,
6.631,4.96851,
6.632,4.966866,
6.633,4.965222,
6.634,4.96588,
6.635,4.966866,
6.636,4.966866,
6.637,4.966209,
6.638,4.966209,
6.639,4.967195,
6.64,4.967524,
6.641,4.966537,
6.642,4.966537,
6.643,4.966537,
6.644,4.967853,
6.645,4.96851,
6.646,4.968181,
6.647,4.967853,
6.648,4.970812,
6.649,4.971141,
6.65,4.971798,
6.651,4.967524,
6.652,4.967195,
6.653,4.969168,
6.654,4.970483,
6.655,4.969497,
6.656,4.969168,
6.657,4.970483,
6.658,4.971469,
6.659,4.970154,
6.66,4.967853,
6.661,4.969168,
6.662,4.969825,
6.663,4.970483,
6.664,4.968181,
6.665,4.96851,
6.666,4.970483,
6.667,4.969825,
6.668,4.967195,
6.669,4.967195,
6.67,4.967524,
6.671,4.969168,
6.672,4.968839,
6.673,4.967195,
6.674,4.969168,
6.675,4.970483,
6.676,4.968839,
6.677,4.967853,
6.678,4.966866,
6.679,4.96851,
6.68,4.969168,
6.681,4.968839,
6.682,4.969497,
6.683,4.970483,
6.684,4.971469,
6.685,4.970154,
6.686,4.969497,
6.687,4.969497,
6.688,4.971798,
6.689,4.971469,
6.69,4.970812,
6.691,4.969825,
6.692,4.970483,
6.693,4.970812,
6.694,4.970154,
6.695,4.96851,
6.696,4.967853,
6.697,4.969497,
6.698,4.970154,
6.699,4.969168,
6.7,4.96851,
6.701,4.967524,
6.702,4.966866,
6.703,4.966866,
6.704,4.96588,
6.705,4.964893,
6.706,4.967524,
6.707,4.968181,
6.708,4.967853,
6.709,4.965551,
6.71,4.96588,
6.711,4.967853,
6.712,4.967524,
6.713,4.966209,
6.714,4.966537,
6.715,4.967853,
6.716,4.969168,
6.717,4.969825,
6.718,4.966537,
6.719,4.966537,
6.72,4.969168,
6.721,4.970483,
6.722,4.969497,
6.723,4.970154,
6.724,4.971798,
6.725,4.973113,
6.726,4.970483,
6.727,4.969497,
6.728,4.969497,
6.729,4.971141,
6.73,4.972785,
6.731,4.970812,
6.732,4.970483,
6.733,4.971141,
6.734,4.972785,
6.735,4.971141,
6.736,4.968839,
6.737,4.96851,
6.738,4.971141,
6.739,4.971798,
6.74,4.969168,
6.741,4.969168,
6.742,4.969168,
6.743,4.968181,
6.744,4.967195,
6.745,4.966209,
6.746,4.966866,
6.747,4.96851,
6.748,4.967853,
6.749,4.966866,
6.75,4.966209,
6.751,4.967195,
6.752,4.966866,
6.753,4.965222,
6.754,4.965222,
6.755,4.967853,
6.756,4.967853,
6.757,4.967195,
6.758,4.968181,
6.759,4.968181,
6.76,4.968839,
6.761,4.968839,
6.762,4.967195,
6.763,4.96851,
6.764,4.970483,
6.765,4.970483,
6.766,4.970812,
6.767,4.969825,
6.768,4.968181,
6.769,4.969825,
6.77,4.969497,
6.771,4.968181,
6.772,4.968839,
6.773,4.970154,
6.774,4.971798,
6.775,4.970483,
6.776,4.968181,
6.777,4.967853,
6.778,4.968839,
6.779,4.969168,
6.78,4.967195,
6.781,4.966537,
6.782,4.967853,
6.783,4.968839,
6.784,4.967853,
6.785,4.965222,
6.786,4.965551,
6.787,4.966866,
6.788,4.967524,
6.789,4.967195,
6.79,4.967195,
6.791,4.967853,
6.792,4.968839,
6.793,4.967524,
6.794,4.96588,
6.795,4.967524,
6.796,4.969168,
6.797,4.970154,
6.798,4.969825,
6.799,4.969825,
6.8,4.972127,
6.801,4.971469,
6.802,4.970154,
6.803,4.970483,
6.804,4.971469,
6.805,4.971469,
6.806,4.971469,
6.807,4.971141,
6.808,4.971141,
6.809,4.972785,
6.81,4.971141,
6.811,4.969497,
6.812,4.970154,
6.813,4.970483,
6.814,4.972456,
6.815,4.971141,
6.816,4.96851,
6.817,4.969825,
6.818,4.968839,
6.819,4.969168,
6.82,4.967524,
6.821,4.966537,
6.822,4.968839,
6.823,4.969825,
6.824,4.969168,
6.825,4.967524,
6.826,4.967853,
6.827,4.967524,
6.828,4.96851,
6.829,4.967195,
6.83,4.966866,
6.831,4.968839,
6.832,4.969497,
6.833,4.968839,
6.834,4.967853,
6.835,4.967853,
6.836,4.969168,
6.837,4.968839,
6.838,4.967853,
6.839,4.969825,
6.84,4.971141,
6.841,4.971141,
6.842,4.969497,
6.843,4.966866,
6.844,4.969825,
6.845,4.969825,
6.846,4.96851,
6.847,4.968181,
6.848,4.969825,
6.849,4.970812,
6.85,4.970483,
6.851,4.966866,
6.852,4.967853,
6.853,4.968839,
6.854,4.969168,
6.855,4.967524,
6.856,4.966537,
6.857,4.96851,
6.858,4.96851,
6.859,4.96588,
6.86,4.965551,
6.861,4.965551,
6.862,4.966537,
6.863,4.966537,
6.864,4.96588,
6.865,4.967524,
6.866,4.969825,
6.867,4.96851,
6.868,4.96588,
6.869,4.965222,
6.87,4.967524,
6.871,4.969168,
6.872,4.967195,
6.873,4.968181,
6.874,4.970483,
6.875,4.971798,
6.876,4.968839,
6.877,4.96851,
6.878,4.970154,
6.879,4.971469,
6.88,4.971798,
6.881,4.969825,
6.882,4.971469,
6.883,4.971798,
6.884,4.972785,
6.885,4.969497,
6.886,4.969825,
6.887,4.971141,
6.888,4.971798,
6.889,4.970483,
6.89,4.970154,
6.891,4.970483,
6.892,4.971798,
6.893,4.970154,
6.894,4.967853,
6.895,4.967524,
6.896,4.96851,
6.897,4.969168,
6.898,4.967853,
6.899,4.967195,
6.9,4.96851,
6.901,4.968181,
6.902,4.967853,
6.903,4.966537,
6.904,4.96588,
6.905,4.967195,
6.906,4.968181,
6.907,4.967853,
6.908,4.967195,
6.909,4.966209,
6.91,4.967195,
6.911,4.967524,
6.912,4.966209,
6.913,4.967524,
6.914,4.96851,
6.915,4.969825,
6.916,4.970483,
6.917,4.96851,
6.918,4.967853,
6.919,4.968839,
6.92,4.970154,
6.921,4.969168,
6.922,4.968181,
6.923,4.969825,
6.924,4.971798,
6.925,4.971141,
6.926,4.967524,
6.927,4.970154,
6.928,4.970154,
6.929,4.970154,
6.93,4.96851,
6.931,4.967195,
6.932,4.969168,
6.933,4.971141,
6.934,4.968839,
6.935,4.966537,
6.936,4.966209,
6.937,4.967195,
6.938,4.968839,
6.939,4.967195,
6.94,4.967524,
6.941,4.968839,
6.942,4.969825,
6.943,4.969497,
6.944,4.966537,
6.945,4.966866,
6.946,4.969168,
6.947,4.969497,
6.948,4.969497,
6.949,4.968839,
6.95,4.969497,
6.951,4.971469,
6.952,4.970154,
6.953,4.969168,
6.954,4.969825,
6.955,4.971469,
6.956,4.972456,
6.957,4.970812,
6.958,4.970483,
6.959,4.971141,
6.96,4.971469,
6.961,4.971798,
6.962,4.970154,
6.963,4.969825,
6.964,4.971798,
6.965,4.972456,
6.966,4.970154,
6.967,4.96851,
6.968,4.96851,
6.969,4.971141,
6.97,4.969497,
6.971,4.966866,
6.972,4.967853,
6.973,4.968839,
6.974,4.96851,
6.975,4.967195,
6.976,4.96588,
6.977,4.966209,
6.978,4.966866,
6.979,4.96588,
6.98,4.965551,
6.981,4.967524,
6.982,4.968181,
6.983,4.96851,
6.984,4.966209,
6.985,4.965551,
6.986,4.966866,
6.987,4.967524,
6.988,4.967195,
6.989,4.967853,
6.99,4.969168,
6.991,4.970154,
6.992,4.969497,
6.993,4.967195,
6.994,4.969168,
6.995,4.969168,
6.996,4.969497,
6.997,4.969168,
6.998,4.968839,
6.999,4.970812,
