LabVIEW Measurement,,
Writer_Version,2,
Reader_Version,2,
Separator,Tab,
Decimal_Separator,.,
Multi_Headings,Yes,
X_Columns,Multi,
Time_Pref,Absolute,
Operator,RHAYESHUER,
Date,2/19/2020,
Time,17:55.1,
***End_of_Header***,,
,,
Channels,1,
Samples,7000,
Date,2/19/2020,
Time,17:55.1,
Y_Unit_Label,Volts,
X_Dimension,Time,
X0,0.00E+00,
Delta_X,0.001,
***End_of_Header***,,
X_Value,Voltage,Comment
0,5.013884,160.0 cm
0.001,5.01224,
0.002,5.012569,
0.003,5.014541,
0.004,5.013884,
0.005,5.012569,
0.006,5.010925,
0.007,5.010267,
0.008,5.011253,
0.009,5.009609,
0.01,5.009609,
0.011,5.009938,
0.012,5.011253,
0.013,5.009938,
0.014,5.009281,
0.015,5.007308,
0.016,5.009609,
0.017,5.008623,
0.018,5.008623,
0.019,5.008294,
0.02,5.009281,
0.021,5.010925,
0.022,5.010267,
0.023,5.008294,
0.024,5.008294,
0.025,5.009938,
0.026,5.011582,
0.027,5.010925,
0.028,5.011911,
0.029,5.013555,
0.03,5.014541,
0.031,5.013555,
0.032,5.010925,
0.033,5.012897,
0.034,5.012569,
0.035,5.012569,
0.036,5.011911,
0.037,5.01224,
0.038,5.013226,
0.039,5.014541,
0.04,5.011582,
0.041,5.011253,
0.042,5.012897,
0.043,5.01224,
0.044,5.011582,
0.045,5.010267,
0.046,5.010596,
0.047,5.011582,
0.048,5.009281,
0.049,5.007965,
0.05,5.007308,
0.051,5.010267,
0.052,5.010596,
0.053,5.008952,
0.054,5.009938,
0.055,5.010267,
0.056,5.010925,
0.057,5.009938,
0.058,5.008294,
0.059,5.009281,
0.06,5.010596,
0.061,5.010925,
0.062,5.011582,
0.063,5.011253,
0.064,5.011911,
0.065,5.012897,
0.066,5.013555,
0.067,5.012897,
0.068,5.013226,
0.069,5.014213,
0.07,5.014541,
0.071,5.013226,
0.072,5.014541,
0.073,5.013884,
0.074,5.013555,
0.075,5.013226,
0.076,5.012897,
0.077,5.014541,
0.078,5.015199,
0.079,5.013226,
0.08,5.012897,
0.081,5.013226,
0.082,5.01224,
0.083,5.01224,
0.084,5.010596,
0.085,5.010596,
0.086,5.011911,
0.087,5.011911,
0.088,5.011911,
0.089,5.009938,
0.09,5.009281,
0.091,5.010596,
0.092,5.011253,
0.093,5.009938,
0.094,5.010267,
0.095,5.011253,
0.096,5.012897,
0.097,5.011253,
0.098,5.008952,
0.099,5.009938,
0.1,5.011253,
0.101,5.010925,
0.102,5.010596,
0.103,5.011911,
0.104,5.014541,
0.105,5.013884,
0.106,5.012569,
0.107,5.011911,
0.108,5.012897,
0.109,5.014213,
0.11,5.013884,
0.111,5.013884,
0.112,5.012897,
0.113,5.013884,
0.114,5.014541,
0.115,5.011911,
0.116,5.010596,
0.117,5.011253,
0.118,5.011911,
0.119,5.012569,
0.12,5.011582,
0.121,5.010267,
0.122,5.010596,
0.123,5.009609,
0.124,5.008952,
0.125,5.008294,
0.126,5.009281,
0.127,5.009938,
0.128,5.009938,
0.129,5.008623,
0.13,5.009938,
0.131,5.009938,
0.132,5.009609,
0.133,5.008294,
0.134,5.007965,
0.135,5.008623,
0.136,5.010267,
0.137,5.010267,
0.138,5.009609,
0.139,5.010925,
0.14,5.010925,
0.141,5.011911,
0.142,5.01224,
0.143,5.010925,
0.144,5.012897,
0.145,5.014213,
0.146,5.013226,
0.147,5.01224,
0.148,5.011911,
0.149,5.012569,
0.15,5.013226,
0.151,5.011911,
0.152,5.01224,
0.153,5.013226,
0.154,5.013555,
0.155,5.015199,
0.156,5.012569,
0.157,5.01224,
0.158,5.012569,
0.159,5.012897,
0.16,5.010925,
0.161,5.009281,
0.162,5.010925,
0.163,5.01224,
0.164,5.010596,
0.165,5.009281,
0.166,5.009938,
0.167,5.010925,
0.168,5.011582,
0.169,5.009281,
0.17,5.009609,
0.171,5.011253,
0.172,5.012897,
0.173,5.010267,
0.174,5.009609,
0.175,5.009281,
0.176,5.011911,
0.177,5.011582,
0.178,5.011911,
0.179,5.012569,
0.18,5.012897,
0.181,5.014541,
0.182,5.013226,
0.183,5.012569,
0.184,5.012569,
0.185,5.014213,
0.186,5.015199,
0.187,5.012569,
0.188,5.012569,
0.189,5.013884,
0.19,5.01224,
0.191,5.011911,
0.192,5.011911,
0.193,5.012569,
0.194,5.013884,
0.195,5.011253,
0.196,5.010925,
0.197,5.011582,
0.198,5.010596,
0.199,5.009281,
0.2,5.007308,
0.201,5.007965,
0.202,5.009938,
0.203,5.010267,
0.204,5.009609,
0.205,5.008952,
0.206,5.008294,
0.207,5.008952,
0.208,5.008294,
0.209,5.007965,
0.21,5.008294,
0.211,5.010596,
0.212,5.010267,
0.213,5.009938,
0.214,5.009938,
0.215,5.009938,
0.216,5.010267,
0.217,5.010596,
0.218,5.011582,
0.219,5.012569,
0.22,5.014213,
0.221,5.013884,
0.222,5.013884,
0.223,5.012897,
0.224,5.013226,
0.225,5.013884,
0.226,5.01224,
0.227,5.01224,
0.228,5.013226,
0.229,5.01487,
0.23,5.014541,
0.231,5.012569,
0.232,5.012569,
0.233,5.013226,
0.234,5.013884,
0.235,5.011253,
0.236,5.011582,
0.237,5.011911,
0.238,5.012897,
0.239,5.010267,
0.24,5.008623,
0.241,5.009609,
0.242,5.011253,
0.243,5.011253,
0.244,0.112241,
0.245,0.089883,
0.246,0.088568,
0.247,0.088568,
0.248,0.088897,
0.249,0.088897,
0.25,0.088568,
0.251,0.089226,
0.252,0.089226,
0.253,0.088897,
0.254,0.089226,
0.255,0.089226,
0.256,0.088568,
0.257,0.089226,
0.258,0.088897,
0.259,0.088568,
0.26,0.089226,
0.261,0.088897,
0.262,0.088897,
0.263,0.088568,
0.264,0.088239,
0.265,0.088568,
0.266,0.089226,
0.267,0.089226,
0.268,0.088568,
0.269,0.088897,
0.27,0.088568,
0.271,0.088897,
0.272,0.091198,
0.273,5.008952,
0.274,5.009609,
0.275,5.008623,
0.276,5.008952,
0.277,5.009938,
0.278,5.009938,
0.279,5.009281,
0.28,5.008294,
0.281,5.009609,
0.282,5.009281,
0.283,5.007308,
0.284,5.006979,
0.285,5.009609,
0.286,5.010596,
0.287,5.009609,
0.288,5.008952,
0.289,5.009281,
0.29,5.008952,
0.291,5.009609,
0.292,5.008952,
0.293,5.009609,
0.294,5.01224,
0.295,5.013226,
0.296,5.013555,
0.297,5.013226,
0.298,5.010925,
0.299,5.012897,
0.3,5.012569,
0.301,5.01224,
0.302,5.011582,
0.303,5.012569,
0.304,5.013884,
0.305,5.013555,
0.306,5.011582,
0.307,5.012569,
0.308,5.012569,
0.309,5.01224,
0.31,5.011911,
0.311,5.010596,
0.312,5.012569,
0.313,5.01224,
0.314,5.010267,
0.315,5.009609,
0.316,5.009938,
0.317,5.010596,
0.318,5.010267,
0.319,5.008952,
0.32,5.009281,
0.321,5.011911,
0.322,5.011582,
0.323,5.009938,
0.324,5.008294,
0.325,5.008623,
0.326,5.011582,
0.327,5.009609,
0.328,5.009938,
0.329,5.010925,
0.33,5.013226,
0.331,5.012569,
0.332,5.010925,
0.333,5.011253,
0.334,5.014213,
0.335,5.013555,
0.336,5.013226,
0.337,5.013555,
0.338,5.014541,
0.339,5.015528,
0.34,5.012897,
0.341,5.012569,
0.342,5.013226,
0.343,5.014541,
0.344,5.014213,
0.345,5.012897,
0.346,5.013555,
0.347,5.01487,
0.348,5.013226,
0.349,5.010925,
0.35,5.011253,
0.351,5.010925,
0.352,5.011582,
0.353,5.010596,
0.354,5.009938,
0.355,5.009938,
0.356,5.010267,
0.357,5.008952,
0.358,5.007965,
0.359,5.008952,
0.36,5.011253,
0.361,5.009938,
0.362,5.009609,
0.363,5.008952,
0.364,5.010925,
0.365,5.010267,
0.366,5.008623,
0.367,5.008623,
0.368,5.010596,
0.369,5.011911,
0.37,5.012569,
0.371,5.013226,
0.372,5.011911,
0.373,5.013226,
0.374,5.012569,
0.375,5.01224,
0.376,5.011253,
0.377,5.012897,
0.378,5.013555,
0.379,5.012569,
0.38,5.011911,
0.381,5.01224,
0.382,5.011253,
0.383,5.012569,
0.384,5.010267,
0.385,5.011253,
0.386,5.01224,
0.387,5.01224,
0.388,5.01224,
0.389,5.009938,
0.39,5.008952,
0.391,5.009281,
0.392,5.008294,
0.393,5.008294,
0.394,5.008623,
0.395,5.009609,
0.396,5.009938,
0.397,5.009938,
0.398,5.007637,
0.399,5.008294,
0.4,5.009281,
0.401,5.008952,
0.402,5.007965,
0.403,5.009281,
0.404,5.011253,
0.405,5.011911,
0.406,5.010267,
0.407,5.008952,
0.408,5.011253,
0.409,5.013226,
0.41,5.011582,
0.411,5.01224,
0.412,5.013555,
0.413,5.01487,
0.414,5.014541,
0.415,5.011253,
0.416,5.012897,
0.417,5.013884,
0.418,5.014213,
0.419,5.013226,
0.42,5.01224,
0.421,5.013884,
0.422,5.015199,
0.423,5.013226,
0.424,5.01224,
0.425,5.011582,
0.426,5.013884,
0.427,5.011582,
0.428,5.010596,
0.429,5.010596,
0.43,5.010596,
0.431,5.010596,
0.432,5.009281,
0.433,5.008623,
0.434,5.010267,
0.435,5.010596,
0.436,5.010925,
0.437,5.010596,
0.438,5.009938,
0.439,5.010267,
0.44,5.010925,
0.441,5.008623,
0.442,5.008623,
0.443,5.011582,
0.444,5.012569,
0.445,5.011582,
0.446,5.010925,
0.447,5.012897,
0.448,5.013226,
0.449,5.011582,
0.45,5.011253,
0.451,5.01224,
0.452,5.013226,
0.453,5.013884,
0.454,5.011911,
0.455,5.012569,
0.456,5.012569,
0.457,5.012569,
0.458,5.011582,
0.459,5.010925,
0.46,5.012569,
0.461,5.013226,
0.462,5.012569,
0.463,5.01224,
0.464,5.010596,
0.465,5.010267,
0.466,5.009609,
0.467,5.007965,
0.468,5.007965,
0.469,5.009938,
0.47,5.009938,
0.471,5.008623,
0.472,5.009609,
0.473,5.008952,
0.474,5.008623,
0.475,5.008623,
0.476,5.008623,
0.477,5.008623,
0.478,5.010596,
0.479,5.009938,
0.48,5.009281,
0.481,5.009281,
0.482,5.009281,
0.483,5.011253,
0.484,5.009938,
0.485,5.009281,
0.486,5.012569,
0.487,5.013884,
0.488,5.012569,
0.489,5.012569,
0.49,5.011911,
0.491,5.012569,
0.492,5.01224,
0.493,5.01224,
0.494,5.012569,
0.495,5.013226,
0.496,5.012569,
0.497,5.013226,
0.498,5.01224,
0.499,5.010925,
0.5,5.012897,
0.501,5.011253,
0.502,5.010925,
0.503,5.010925,
0.504,5.01224,
0.505,5.01224,
0.506,5.009609,
0.507,5.008952,
0.508,5.009938,
0.509,5.010925,
0.51,5.009938,
0.511,5.009938,
0.512,5.010596,
0.513,5.01224,
0.514,5.010596,
0.515,5.008952,
0.516,5.008952,
0.517,5.010267,
0.518,5.010596,
0.519,5.009938,
0.52,5.010596,
0.521,5.011911,
0.522,5.013884,
0.523,5.011911,
0.524,5.011253,
0.525,5.012897,
0.526,5.014213,
0.527,5.01487,
0.528,5.012897,
0.529,5.013884,
0.53,5.015199,
0.531,5.014541,
0.532,5.012569,
0.533,5.011253,
0.534,5.011911,
0.535,5.013555,
0.536,5.013884,
0.537,5.013226,
0.538,5.012569,
0.539,5.012897,
0.54,5.011911,
0.541,5.010267,
0.542,5.009938,
0.543,5.010596,
0.544,5.010596,
0.545,5.010596,
0.546,5.008623,
0.547,5.009609,
0.548,5.009609,
0.549,5.009938,
0.55,5.008623,
0.551,5.007965,
0.552,5.009938,
0.553,5.010267,
0.554,5.008952,
0.555,5.008623,
0.556,5.009938,
0.557,5.009281,
0.558,5.009281,
0.559,5.008623,
0.56,5.010596,
0.561,5.013884,
0.562,5.012897,
0.563,5.012897,
0.564,5.011911,
0.565,5.012569,
0.566,5.013555,
0.567,5.011582,
0.568,5.010925,
0.569,5.012569,
0.57,5.013226,
0.571,5.013555,
0.572,5.012569,
0.573,5.011253,
0.574,5.011582,
0.575,5.01224,
0.576,5.011582,
0.577,5.011911,
0.578,5.011253,
0.579,5.012569,
0.58,5.011911,
0.581,5.009281,
0.582,5.007965,
0.583,5.008623,
0.584,5.009281,
0.585,5.007965,
0.586,5.007965,
0.587,5.010267,
0.588,5.010596,
0.589,5.009938,
0.59,5.006979,
0.591,5.008294,
0.592,5.010596,
0.593,5.009281,
0.594,5.008294,
0.595,5.009609,
0.596,5.010596,
0.597,5.01224,
0.598,5.008952,
0.599,5.004349,
0.6,5.011582,
0.601,5.012897,
0.602,5.011911,
0.603,5.011911,
0.604,5.014213,
0.605,5.01487,
0.606,5.014213,
0.607,5.010925,
0.608,5.01224,
0.609,5.013226,
0.61,5.012897,
0.611,5.012897,
0.612,5.012569,
0.613,5.013555,
0.614,5.013884,
0.615,5.01224,
0.616,5.009938,
0.617,5.010925,
0.618,5.011911,
0.619,5.010925,
0.62,5.011253,
0.621,5.010925,
0.622,5.011582,
0.623,5.011253,
0.624,5.009609,
0.625,5.009281,
0.626,5.009938,
0.627,5.011253,
0.628,5.011582,
0.629,5.010596,
0.63,5.010596,
0.631,5.011582,
0.632,5.010267,
0.633,5.009281,
0.634,5.009609,
0.635,5.011582,
0.636,5.012897,
0.637,5.012569,
0.638,5.012569,
0.639,5.013884,
0.64,5.013226,
0.641,5.013555,
0.642,5.012569,
0.643,5.013226,
0.644,5.014541,
0.645,5.013884,
0.646,5.013226,
0.647,5.013555,
0.648,5.014213,
0.649,5.013226,
0.65,5.01224,
0.651,5.012569,
0.652,5.014213,
0.653,5.013555,
0.654,5.01224,
0.655,5.010925,
0.656,5.010596,
0.657,5.010596,
0.658,5.008623,
0.659,5.008294,
0.66,5.009281,
0.661,5.009609,
0.662,5.009938,
0.663,5.008952,
0.664,5.009281,
0.665,5.008623,
0.666,5.008952,
0.667,5.007965,
0.668,5.008294,
0.669,5.008952,
0.67,5.009281,
0.671,5.009938,
0.672,5.009281,
0.673,5.007965,
0.674,5.010596,
0.675,5.011253,
0.676,5.010925,
0.677,5.010925,
0.678,5.011582,
0.679,5.013555,
0.68,5.014213,
0.681,5.011253,
0.682,5.011253,
0.683,5.01224,
0.684,5.013555,
0.685,5.01224,
0.686,5.011253,
0.687,5.012897,
0.688,5.014213,
0.689,5.012897,
0.69,5.010925,
0.691,5.010925,
0.692,5.012569,
0.693,5.011911,
0.694,5.009938,
0.695,5.011253,
0.696,5.011253,
0.697,5.011253,
0.698,5.008623,
0.699,5.007965,
0.7,5.009281,
0.701,5.010925,
0.702,5.009609,
0.703,5.010267,
0.704,5.009609,
0.705,5.011253,
0.706,5.011253,
0.707,5.007965,
0.708,5.008294,
0.709,5.010596,
0.71,5.010925,
0.711,5.010267,
0.712,5.009938,
0.713,5.01224,
0.714,5.013884,
0.715,5.011911,
0.716,5.011911,
0.717,5.01224,
0.718,5.013884,
0.719,5.014213,
0.72,5.013884,
0.721,5.012897,
0.722,5.014213,
0.723,5.014541,
0.724,5.013884,
0.725,5.01224,
0.726,5.013884,
0.727,5.014213,
0.728,5.014541,
0.729,5.013226,
0.73,5.01224,
0.731,5.013226,
0.732,5.011911,
0.733,5.010596,
0.734,5.009938,
0.735,5.009938,
0.736,5.011253,
0.737,5.011253,
0.738,5.010267,
0.739,5.010596,
0.74,5.009609,
0.741,5.009938,
0.742,5.009609,
0.743,5.008623,
0.744,5.011253,
0.745,5.011911,
0.746,5.011253,
0.747,5.011253,
0.748,5.009938,
0.749,5.011253,
0.75,5.011253,
0.751,5.009938,
0.752,5.011911,
0.753,5.013226,
0.754,5.014213,
0.755,5.014213,
0.756,5.012897,
0.757,5.013555,
0.758,5.013884,
0.759,5.013555,
0.76,5.012569,
0.761,5.013555,
0.762,5.015199,
0.763,5.014541,
0.764,5.013555,
0.765,5.010925,
0.766,5.011582,
0.767,5.013884,
0.768,5.013226,
0.769,5.009938,
0.77,5.010925,
0.771,5.011253,
0.772,5.011582,
0.773,5.009281,
0.774,5.006979,
0.775,5.008623,
0.776,5.009609,
0.777,5.009609,
0.778,5.008294,
0.779,5.009281,
0.78,5.010596,
0.781,5.009938,
0.782,5.007965,
0.783,5.007965,
0.784,5.008623,
0.785,5.008623,
0.786,5.008952,
0.787,5.008952,
0.788,5.009938,
0.789,5.011911,
0.79,5.010596,
0.791,5.009938,
0.792,5.010925,
0.793,5.013226,
0.794,5.012897,
0.795,5.011911,
0.796,5.011911,
0.797,5.013226,
0.798,5.012897,
0.799,5.011582,
0.8,5.010596,
0.801,5.011911,
0.802,5.013226,
0.803,5.01224,
0.804,5.011911,
0.805,5.011582,
0.806,5.013555,
0.807,5.011253,
0.808,5.010267,
0.809,5.009609,
0.81,5.010596,
0.811,5.010596,
0.812,5.009609,
0.813,5.008952,
0.814,5.009609,
0.815,5.008952,
0.816,5.009609,
0.817,5.008294,
0.818,5.009281,
0.819,5.009938,
0.82,5.010267,
0.821,5.009938,
0.822,5.010596,
0.823,5.008294,
0.824,5.009281,
0.825,5.010267,
0.826,5.008952,
0.827,5.010267,
0.828,5.010925,
0.829,5.013226,
0.83,5.014541,
0.831,5.011911,
0.832,5.012569,
0.833,5.012897,
0.834,5.013884,
0.835,5.013884,
0.836,5.013555,
0.837,5.014541,
0.838,5.015528,
0.839,5.013884,
0.84,5.012569,
0.841,5.013555,
0.842,5.014213,
0.843,5.012897,
0.844,5.013226,
0.845,5.014213,
0.846,5.013884,
0.847,5.012569,
0.848,5.009938,
0.849,5.009938,
0.85,5.011911,
0.851,5.009281,
0.852,5.010596,
0.853,5.010267,
0.854,5.011911,
0.855,5.011911,
0.856,5.010267,
0.857,5.009281,
0.858,5.010596,
0.859,5.010596,
0.86,5.010596,
0.861,5.010596,
0.862,5.011253,
0.863,5.012569,
0.864,5.011911,
0.865,5.009938,
0.866,5.010925,
0.867,5.011911,
0.868,5.014213,
0.869,5.014213,
0.87,5.013884,
0.871,5.013884,
0.872,5.01487,
0.873,5.013884,
0.874,5.012569,
0.875,5.01224,
0.876,5.014541,
0.877,5.014213,
0.878,5.012897,
0.879,5.012897,
0.88,5.013226,
0.881,5.013884,
0.882,5.011911,
0.883,5.010596,
0.884,5.010925,
0.885,5.011582,
0.886,5.010925,
0.887,5.009281,
0.888,5.009281,
0.889,5.008952,
0.89,5.009281,
0.891,5.008952,
0.892,5.007637,
0.893,5.008294,
0.894,5.009938,
0.895,5.010596,
0.896,5.007965,
0.897,5.009281,
0.898,5.008952,
0.899,5.009938,
0.9,5.008952,
0.901,5.008294,
0.902,5.009938,
0.903,5.011582,
0.904,5.011911,
0.905,5.012569,
0.906,5.010925,
0.907,5.011911,
0.908,5.013555,
0.909,5.011911,
0.91,5.01224,
0.911,5.012897,
0.912,5.014541,
0.913,5.013555,
0.914,5.012569,
0.915,5.011911,
0.916,5.011911,
0.917,5.013555,
0.918,5.01224,
0.919,5.012569,
0.92,5.014213,
0.921,5.014541,
0.922,5.014213,
0.923,5.011253,
0.924,5.009938,
0.925,5.011253,
0.926,5.011253,
0.927,5.009281,
0.928,5.009938,
0.929,5.010925,
0.93,5.011582,
0.931,5.010267,
0.932,5.008952,
0.933,5.009938,
0.934,5.010267,
0.935,5.011582,
0.936,5.009938,
0.937,5.009281,
0.938,5.010925,
0.939,5.010925,
0.94,5.009281,
0.941,5.008623,
0.942,5.010596,
0.943,5.013226,
0.944,5.013226,
0.945,5.011911,
0.946,5.013555,
0.947,5.013884,
0.948,5.014213,
0.949,5.011911,
0.95,5.010925,
0.951,5.012569,
0.952,5.013555,
0.953,5.012569,
0.954,5.01224,
0.955,5.012569,
0.956,5.013884,
0.957,5.011911,
0.958,5.010596,
0.959,5.010925,
0.96,5.011582,
0.961,5.011253,
0.962,5.010267,
0.963,5.009609,
0.964,5.010267,
0.965,5.009609,
0.966,5.008952,
0.967,5.008623,
0.968,5.008623,
0.969,5.010267,
0.97,5.009938,
0.971,5.009281,
0.972,5.008623,
0.973,5.008294,
0.974,5.009609,
0.975,5.009609,
0.976,5.008294,
0.977,5.008294,
0.978,5.010596,
0.979,5.011582,
0.98,5.010925,
0.981,5.009609,
0.982,5.011911,
0.983,5.012569,
0.984,5.011911,
0.985,5.010925,
0.986,5.01224,
0.987,5.01487,
0.988,5.015199,
0.989,5.013555,
0.99,5.011582,
0.991,5.01224,
0.992,5.013555,
0.993,5.01224,
0.994,5.011582,
0.995,5.012897,
0.996,5.013555,
0.997,5.013226,
0.998,5.011253,
0.999,5.009938,
1,5.010925,
1.001,5.010596,
1.002,5.009281,
1.003,5.010596,
1.004,5.011253,
1.005,5.011582,
1.006,5.009938,
1.007,5.007965,
1.008,5.009609,
1.009,5.010596,
1.01,5.010925,
1.011,5.009609,
1.012,5.009938,
1.013,5.011911,
1.014,5.011911,
1.015,5.009609,
1.016,5.009609,
1.017,5.009938,
1.018,5.013555,
1.019,5.011911,
1.02,5.011582,
1.021,5.013555,
1.022,5.014213,
1.023,5.014213,
1.024,5.013226,
1.025,5.012569,
1.026,5.014213,
1.027,5.014213,
1.028,5.013884,
1.029,5.013226,
1.03,5.013226,
1.031,5.014541,
1.032,5.012897,
1.033,5.011582,
1.034,5.012569,
1.035,5.013555,
1.036,5.013555,
1.037,5.011911,
1.038,5.009609,
1.039,5.011582,
1.04,5.009938,
1.041,5.008952,
1.042,5.008952,
1.043,5.009938,
1.044,5.011582,
1.045,5.010925,
1.046,5.009281,
1.047,5.009281,
1.048,5.009281,
1.049,5.009281,
1.05,5.009281,
1.051,5.007965,
1.052,5.009609,
1.053,5.010596,
1.054,5.010267,
1.055,5.009281,
1.056,5.009938,
1.057,5.011253,
1.058,5.011253,
1.059,5.010925,
1.06,5.01224,
1.061,5.012897,
1.062,5.013555,
1.063,5.013226,
1.064,5.012897,
1.065,5.012569,
1.066,5.01224,
1.067,5.012897,
1.068,5.011582,
1.069,5.01224,
1.07,5.013555,
1.071,5.013226,
1.072,5.013555,
1.073,5.011911,
1.074,5.01224,
1.075,5.011253,
1.076,5.009609,
1.077,5.009938,
1.078,5.010596,
1.079,5.011582,
1.08,5.010596,
1.081,5.009938,
1.082,5.009281,
1.083,5.009938,
1.084,5.009281,
1.085,5.009281,
1.086,5.009938,
1.087,5.011253,
1.088,5.011911,
1.089,5.010267,
1.09,5.008623,
1.091,5.010925,
1.092,5.011582,
1.093,5.010596,
1.094,5.010596,
1.095,5.011253,
1.096,5.015199,
1.097,5.015199,
1.098,5.013226,
1.099,5.011911,
1.1,5.013226,
1.101,5.015199,
1.102,5.013555,
1.103,5.013226,
1.104,5.013884,
1.105,5.01487,
1.106,5.014541,
1.107,5.011253,
1.108,5.012897,
1.109,5.014213,
1.11,5.013884,
1.111,5.014213,
1.112,5.011911,
1.113,5.013884,
1.114,5.012897,
1.115,5.009609,
1.116,5.010267,
1.117,5.009609,
1.118,5.010925,
1.119,5.009609,
1.12,5.009938,
1.121,5.010267,
1.122,5.010925,
1.123,5.010267,
1.124,5.008294,
1.125,5.008623,
1.126,5.010925,
1.127,5.011582,
1.128,5.010267,
1.129,5.009609,
1.13,5.010267,
1.131,5.011253,
1.132,5.009281,
1.133,5.008952,
1.134,5.010267,
1.135,5.012569,
1.136,5.013226,
1.137,5.011911,
1.138,5.011911,
1.139,5.012569,
1.14,5.013884,
1.141,5.011911,
1.142,5.011582,
1.143,5.010596,
1.144,5.013555,
1.145,5.013555,
1.146,5.013226,
1.147,5.011911,
1.148,5.010925,
1.149,5.010925,
1.15,5.012569,
1.151,5.010925,
1.152,5.009938,
1.153,5.010925,
1.154,5.010596,
1.155,5.011582,
1.156,5.008294,
1.157,5.007965,
1.158,5.009938,
1.159,5.008952,
1.16,5.008294,
1.161,5.008294,
1.162,5.008952,
1.163,5.010596,
1.164,5.010267,
1.165,5.008294,
1.166,5.008623,
1.167,5.008952,
1.168,5.009281,
1.169,5.008623,
1.17,5.010267,
1.171,5.011582,
1.172,5.01224,
1.173,5.010925,
1.174,5.009609,
1.175,5.012569,
1.176,5.013226,
1.177,5.011911,
1.178,5.011911,
1.179,5.012897,
1.18,5.013884,
1.181,5.012897,
1.182,5.009938,
1.183,5.010925,
1.184,5.01224,
1.185,5.013226,
1.186,5.01224,
1.187,5.011582,
1.188,5.012897,
1.189,5.013555,
1.19,5.010267,
1.191,5.009281,
1.192,5.009281,
1.193,5.009609,
1.194,5.010267,
1.195,5.009281,
1.196,5.009281,
1.197,5.010267,
1.198,5.009609,
1.199,5.007965,
1.2,5.007965,
1.201,5.008294,
1.202,5.009609,
1.203,5.010267,
1.204,5.009938,
1.205,5.010596,
1.206,5.010596,
1.207,5.009938,
1.208,5.010267,
1.209,5.010596,
1.21,5.012569,
1.211,5.013884,
1.212,5.012569,
1.213,5.013555,
1.214,5.014541,
1.215,5.013884,
1.216,5.013884,
1.217,5.012897,
1.218,5.012897,
1.219,5.015856,
1.22,5.01487,
1.221,5.013884,
1.222,5.013226,
1.223,5.013226,
1.224,5.013884,
1.225,5.013884,
1.226,5.011911,
1.227,5.01224,
1.228,5.01224,
1.229,5.012897,
1.23,5.013226,
1.231,5.010925,
1.232,5.008952,
1.233,5.009609,
1.234,5.009938,
1.235,5.009609,
1.236,5.008952,
1.237,5.009938,
1.238,5.01224,
1.239,5.011253,
1.24,5.009609,
1.241,5.008952,
1.242,5.010596,
1.243,5.011582,
1.244,5.011253,
1.245,5.010925,
1.246,5.011911,
1.247,5.012569,
1.248,5.011911,
1.249,5.011253,
1.25,5.01224,
1.251,5.013555,
1.252,5.013226,
1.253,5.013555,
1.254,5.013226,
1.255,5.01487,
1.256,5.014541,
1.257,5.011911,
1.258,5.012897,
1.259,5.012569,
1.26,5.014213,
1.261,5.013555,
1.262,5.013226,
1.263,5.013226,
1.264,5.014213,
1.265,5.013226,
1.266,5.010596,
1.267,5.009938,
1.268,5.010925,
1.269,5.011582,
1.27,5.009609,
1.271,5.008623,
1.272,5.009938,
1.273,5.009609,
1.274,5.008952,
1.275,5.008623,
1.276,5.008294,
1.277,5.009609,
1.278,5.010267,
1.279,5.009609,
1.28,5.008623,
1.281,5.009281,
1.282,5.008952,
1.283,5.008623,
1.284,5.007965,
1.285,5.008952,
1.286,5.010925,
1.287,5.012897,
1.288,5.012569,
1.289,5.011582,
1.29,5.010925,
1.291,5.012569,
1.292,5.01224,
1.293,5.011911,
1.294,5.012569,
1.295,5.014541,
1.296,5.012897,
1.297,5.012897,
1.298,5.011911,
1.299,5.01224,
1.3,5.012569,
1.301,5.011582,
1.302,5.011911,
1.303,5.012897,
1.304,5.012569,
1.305,5.012897,
1.306,5.010267,
1.307,5.009609,
1.308,5.010596,
1.309,5.010267,
1.31,5.008623,
1.311,5.009281,
1.312,5.010596,
1.313,5.011253,
1.314,5.010925,
1.315,5.008294,
1.316,5.009609,
1.317,5.010267,
1.318,5.010267,
1.319,5.009938,
1.32,5.010596,
1.321,5.011911,
1.322,5.013226,
1.323,5.010596,
1.324,5.010267,
1.325,5.011911,
1.326,5.013555,
1.327,5.014213,
1.328,5.013226,
1.329,5.013884,
1.33,5.015199,
1.331,5.014541,
1.332,5.011253,
1.333,5.011582,
1.334,5.013226,
1.335,5.013555,
1.336,5.013884,
1.337,5.01224,
1.338,5.013555,
1.339,5.013884,
1.34,5.012897,
1.341,5.011582,
1.342,5.010925,
1.343,5.012569,
1.344,5.01224,
1.345,5.011253,
1.346,5.009938,
1.347,5.009938,
1.348,5.011253,
1.349,5.009281,
1.35,5.006979,
1.351,5.008294,
1.352,5.009281,
1.353,5.010596,
1.354,5.008623,
1.355,5.008952,
1.356,5.009281,
1.357,5.008952,
1.358,5.008294,
1.359,5.007965,
1.36,5.008952,
1.361,5.010925,
1.362,5.010596,
1.363,5.010267,
1.364,5.011911,
1.365,5.011911,
1.366,5.01224,
1.367,5.010925,
1.368,5.011253,
1.369,5.012569,
1.37,5.013884,
1.371,5.013226,
1.372,5.012569,
1.373,5.011911,
1.374,5.01224,
1.375,5.012569,
1.376,5.011582,
1.377,5.011582,
1.378,5.012569,
1.379,5.013226,
1.38,5.011582,
1.381,5.009938,
1.382,5.010596,
1.383,5.009938,
1.384,5.008294,
1.385,5.008623,
1.386,5.009281,
1.387,5.011582,
1.388,5.010267,
1.389,5.009281,
1.39,5.007308,
1.391,5.008952,
1.392,5.009938,
1.393,5.009281,
1.394,5.008952,
1.395,5.009609,
1.396,5.010925,
1.397,5.011582,
1.398,5.009281,
1.399,5.008623,
1.4,5.011253,
1.401,5.012897,
1.402,5.01224,
1.403,5.011253,
1.404,5.014213,
1.405,5.01487,
1.406,5.014213,
1.407,5.01224,
1.408,5.011582,
1.409,5.013555,
1.41,5.014213,
1.411,5.012569,
1.412,5.013555,
1.413,5.014541,
1.414,5.01487,
1.415,5.012569,
1.416,5.01224,
1.417,5.011911,
1.418,5.013226,
1.419,5.011911,
1.42,5.010925,
1.421,5.010596,
1.422,5.011582,
1.423,5.010596,
1.424,5.009938,
1.425,5.008623,
1.426,5.010267,
1.427,5.010925,
1.428,5.010267,
1.429,5.009609,
1.43,5.011253,
1.431,5.011911,
1.432,5.010267,
1.433,5.009281,
1.434,5.009609,
1.435,5.010596,
1.436,5.011582,
1.437,5.009938,
1.438,5.010596,
1.439,5.011911,
1.44,5.012569,
1.441,5.013555,
1.442,5.012569,
1.443,5.012569,
1.444,5.014213,
1.445,5.015199,
1.446,5.014541,
1.447,5.011582,
1.448,5.013226,
1.449,5.013555,
1.45,5.012569,
1.451,5.01224,
1.452,5.011582,
1.453,5.013226,
1.454,5.013884,
1.455,5.01224,
1.456,5.011911,
1.457,5.010596,
1.458,5.010596,
1.459,5.009938,
1.46,5.008623,
1.461,5.009281,
1.462,5.010267,
1.463,5.009281,
1.464,5.008623,
1.465,5.007637,
1.466,5.008294,
1.467,5.008294,
1.468,5.008294,
1.469,5.008623,
1.47,5.009281,
1.471,5.010267,
1.472,5.009938,
1.473,5.007965,
1.474,5.008294,
1.475,5.010267,
1.476,5.010267,
1.477,5.010267,
1.478,5.010596,
1.479,5.011911,
1.48,5.013884,
1.481,5.011911,
1.482,5.010267,
1.483,5.011253,
1.484,5.012569,
1.485,5.01224,
1.486,5.011253,
1.487,5.013226,
1.488,5.013555,
1.489,5.012897,
1.49,5.010596,
1.491,5.010925,
1.492,5.01224,
1.493,5.011253,
1.494,5.011582,
1.495,5.011253,
1.496,5.011911,
1.497,5.010596,
1.498,5.008623,
1.499,5.007965,
1.5,5.009281,
1.501,5.009938,
1.502,5.008623,
1.503,5.007965,
1.504,5.009938,
1.505,5.010925,
1.506,5.010925,
1.507,5.007308,
1.508,5.007637,
1.509,5.010267,
1.51,5.010925,
1.511,5.008952,
1.512,5.009281,
1.513,5.011253,
1.514,5.013226,
1.515,5.009609,
1.516,5.009609,
1.517,5.011253,
1.518,5.012897,
1.519,5.012897,
1.52,5.01224,
1.521,0.110268,
1.522,0.089554,
1.523,0.088568,
1.524,0.088897,
1.525,0.088568,
1.526,0.088568,
1.527,0.088897,
1.528,0.088568,
1.529,0.089554,
1.53,0.088897,
1.531,0.088568,
1.532,0.088568,
1.533,0.089226,
1.534,0.089226,
1.535,0.088568,
1.536,0.088897,
1.537,0.088568,
1.538,0.088897,
1.539,0.088897,
1.54,0.089226,
1.541,0.088239,
1.542,0.088897,
1.543,0.088568,
1.544,0.089226,
1.545,0.088568,
1.546,0.089226,
1.547,0.088897,
1.548,0.088897,
1.549,0.098103,
1.55,5.004349,
1.551,5.009281,
1.552,5.011911,
1.553,5.011911,
1.554,5.011253,
1.555,5.011911,
1.556,5.013555,
1.557,5.012569,
1.558,5.01224,
1.559,5.011582,
1.56,5.014213,
1.561,5.01487,
1.562,5.01224,
1.563,5.013226,
1.564,5.013884,
1.565,5.013226,
1.566,5.011582,
1.567,5.010596,
1.568,5.01224,
1.569,5.012897,
1.57,5.01224,
1.571,5.011582,
1.572,5.010596,
1.573,5.011253,
1.574,5.010267,
1.575,5.008623,
1.576,5.008623,
1.577,5.008623,
1.578,5.009938,
1.579,5.010267,
1.58,5.007965,
1.581,5.009609,
1.582,5.008623,
1.583,5.008294,
1.584,5.008294,
1.585,5.007965,
1.586,5.009609,
1.587,5.009938,
1.588,5.008952,
1.589,5.009609,
1.59,5.009281,
1.591,5.009938,
1.592,5.009609,
1.593,5.010596,
1.594,5.012569,
1.595,5.013226,
1.596,5.013226,
1.597,5.012897,
1.598,5.01224,
1.599,5.01224,
1.6,5.013226,
1.601,5.012569,
1.602,5.012569,
1.603,5.012569,
1.604,5.013555,
1.605,5.014541,
1.606,5.011911,
1.607,5.010596,
1.608,5.012569,
1.609,5.012569,
1.61,5.010596,
1.611,5.010267,
1.612,5.011253,
1.613,5.011911,
1.614,5.010596,
1.615,5.008294,
1.616,5.008952,
1.617,5.010596,
1.618,5.009938,
1.619,5.009609,
1.62,5.009938,
1.621,5.010596,
1.622,5.01224,
1.623,5.010596,
1.624,5.009281,
1.625,5.009938,
1.626,5.010267,
1.627,5.011253,
1.628,5.010596,
1.629,5.010596,
1.63,5.013884,
1.631,5.013884,
1.632,5.011582,
1.633,5.012569,
1.634,5.013555,
1.635,5.01487,
1.636,5.012897,
1.637,5.013226,
1.638,5.013884,
1.639,5.014541,
1.64,5.013226,
1.641,5.011911,
1.642,5.013555,
1.643,5.014213,
1.644,5.013555,
1.645,5.012897,
1.646,5.013226,
1.647,5.013226,
1.648,5.013555,
1.649,5.010925,
1.65,5.009938,
1.651,5.009938,
1.652,5.010596,
1.653,5.011253,
1.654,5.009281,
1.655,5.008623,
1.656,5.010267,
1.657,5.010267,
1.658,5.009281,
1.659,5.007637,
1.66,5.008623,
1.661,5.010596,
1.662,5.010596,
1.663,5.009609,
1.664,5.008952,
1.665,5.009281,
1.666,5.010267,
1.667,5.008294,
1.668,5.008952,
1.669,5.010596,
1.67,5.012569,
1.671,5.012897,
1.672,5.012897,
1.673,5.012569,
1.674,5.012897,
1.675,5.012569,
1.676,5.011582,
1.677,5.01224,
1.678,5.013884,
1.679,5.013884,
1.68,5.01224,
1.681,5.011582,
1.682,5.012569,
1.683,5.011911,
1.684,5.011253,
1.685,5.010596,
1.686,5.011911,
1.687,5.011911,
1.688,5.011253,
1.689,5.009938,
1.69,5.008623,
1.691,5.009609,
1.692,5.009609,
1.693,5.007308,
1.694,5.008623,
1.695,5.010267,
1.696,5.010596,
1.697,5.009938,
1.698,5.008623,
1.699,5.008952,
1.7,5.010596,
1.701,5.007965,
1.702,5.009609,
1.703,5.011582,
1.704,5.011582,
1.705,5.013226,
1.706,5.010925,
1.707,5.012569,
1.708,5.013555,
1.709,5.013555,
1.71,5.012897,
1.711,5.013226,
1.712,5.015199,
1.713,5.014541,
1.714,5.014541,
1.715,5.012569,
1.716,5.01224,
1.717,5.013884,
1.718,5.013884,
1.719,5.01224,
1.72,5.013884,
1.721,5.01487,
1.722,5.015528,
1.723,5.013226,
1.724,5.010925,
1.725,5.011582,
1.726,5.011582,
1.727,5.010925,
1.728,5.009938,
1.729,5.010596,
1.73,5.011582,
1.731,5.010925,
1.732,5.008623,
1.733,5.009609,
1.734,5.010267,
1.735,5.010596,
1.736,5.010267,
1.737,5.009609,
1.738,5.012569,
1.739,5.012569,
1.74,5.010596,
1.741,5.009281,
1.742,5.010596,
1.743,5.012897,
1.744,5.012569,
1.745,5.01224,
1.746,5.013226,
1.747,5.014541,
1.748,5.013555,
1.749,5.013226,
1.75,5.011911,
1.751,5.013555,
1.752,5.014541,
1.753,5.012897,
1.754,5.013555,
1.755,5.013884,
1.756,5.015199,
1.757,5.012897,
1.758,5.012569,
1.759,5.012897,
1.76,5.013884,
1.761,5.01487,
1.762,5.01224,
1.763,5.011911,
1.764,5.012897,
1.765,5.011911,
1.766,5.009938,
1.767,5.008623,
1.768,5.009609,
1.769,5.009938,
1.77,5.01224,
1.771,5.010596,
1.772,5.011253,
1.773,5.010596,
1.774,5.010596,
1.775,5.010267,
1.776,5.008623,
1.777,5.010925,
1.778,5.010925,
1.779,5.011911,
1.78,5.011253,
1.781,5.009281,
1.782,5.010925,
1.783,5.01224,
1.784,5.011253,
1.785,5.01224,
1.786,5.012897,
1.787,5.014541,
1.788,5.013884,
1.789,5.01224,
1.79,5.012569,
1.791,5.01224,
1.792,5.012897,
1.793,5.011253,
1.794,5.011582,
1.795,5.014213,
1.796,5.013555,
1.797,5.012897,
1.798,5.011582,
1.799,5.009938,
1.8,5.011253,
1.801,5.011253,
1.802,5.008952,
1.803,5.009281,
1.804,5.011253,
1.805,5.011253,
1.806,5.009281,
1.807,5.007308,
1.808,5.007965,
1.809,5.009281,
1.81,5.008952,
1.811,5.008294,
1.812,5.009938,
1.813,5.010925,
1.814,5.011253,
1.815,5.007965,
1.816,5.007308,
1.817,5.008952,
1.818,5.010267,
1.819,5.009938,
1.82,5.010596,
1.821,5.012897,
1.822,5.013884,
1.823,5.013226,
1.824,5.011582,
1.825,5.012569,
1.826,5.013884,
1.827,5.014213,
1.828,5.013884,
1.829,5.014213,
1.83,5.015199,
1.831,5.01487,
1.832,5.012569,
1.833,5.011911,
1.834,5.013884,
1.835,5.013884,
1.836,5.013226,
1.837,5.013226,
1.838,5.012897,
1.839,5.013884,
1.84,5.011582,
1.841,5.009281,
1.842,5.009609,
1.843,5.011253,
1.844,5.011582,
1.845,5.010267,
1.846,5.009938,
1.847,5.010267,
1.848,5.010596,
1.849,5.008952,
1.85,5.008294,
1.851,5.009609,
1.852,5.010925,
1.853,5.011253,
1.854,5.010596,
1.855,5.009281,
1.856,5.009938,
1.857,5.010596,
1.858,5.009938,
1.859,5.009609,
1.86,5.011911,
1.861,5.013226,
1.862,5.013555,
1.863,5.012569,
1.864,5.012569,
1.865,5.012897,
1.866,5.012569,
1.867,5.011582,
1.868,5.011253,
1.869,5.013884,
1.87,5.013226,
1.871,5.012897,
1.872,5.012569,
1.873,5.011582,
1.874,5.011911,
1.875,5.011911,
1.876,5.009938,
1.877,5.011253,
1.878,5.011253,
1.879,5.010925,
1.88,5.009938,
1.881,5.009281,
1.882,5.008294,
1.883,5.009609,
1.884,5.007965,
1.885,5.007637,
1.886,5.010267,
1.887,5.010596,
1.888,5.010267,
1.889,5.009938,
1.89,5.008294,
1.891,5.009281,
1.892,5.009609,
1.893,5.008623,
1.894,5.009281,
1.895,5.010267,
1.896,5.011911,
1.897,5.012569,
1.898,5.011253,
1.899,5.010596,
1.9,5.012569,
1.901,5.013555,
1.902,5.012897,
1.903,5.013555,
1.904,5.01487,
1.905,5.015199,
1.906,5.014213,
1.907,5.011582,
1.908,5.012897,
1.909,5.013884,
1.91,5.013226,
1.911,5.012569,
1.912,5.013226,
1.913,5.015528,
1.914,5.014213,
1.915,5.011582,
1.916,5.009609,
1.917,5.011911,
1.918,5.01224,
1.919,5.009938,
1.92,5.009609,
1.921,5.011253,
1.922,5.011253,
1.923,5.010925,
1.924,5.008294,
1.925,5.009281,
1.926,5.010925,
1.927,5.011253,
1.928,5.009938,
1.929,5.010267,
1.93,5.010596,
1.931,5.011911,
1.932,5.010596,
1.933,5.008623,
1.934,5.010925,
1.935,5.011253,
1.936,5.012569,
1.937,5.01224,
1.938,5.011911,
1.939,5.013555,
1.94,5.013226,
1.941,5.012897,
1.942,5.011253,
1.943,5.013226,
1.944,5.013884,
1.945,5.013226,
1.946,5.011911,
1.947,5.012897,
1.948,5.012897,
1.949,5.011582,
1.95,5.010925,
1.951,5.010596,
1.952,5.01224,
1.953,5.011911,
1.954,5.009938,
1.955,5.010596,
1.956,5.009609,
1.957,5.009938,
1.958,5.008294,
1.959,5.007308,
1.96,5.009281,
1.961,5.009938,
1.962,5.010596,
1.963,5.008294,
1.964,5.008623,
1.965,5.009281,
1.966,5.008623,
1.967,5.008294,
1.968,5.007308,
1.969,5.008952,
1.97,5.010596,
1.971,5.009609,
1.972,5.010596,
1.973,5.010925,
1.974,5.011582,
1.975,5.011911,
1.976,5.010596,
1.977,5.011582,
1.978,5.013555,
1.979,5.013226,
1.98,5.013555,
1.981,5.013226,
1.982,5.012569,
1.983,5.012569,
1.984,5.011911,
1.985,5.011582,
1.986,5.012897,
1.987,5.014213,
1.988,5.013884,
1.989,5.013226,
1.99,5.012569,
1.991,5.012569,
1.992,5.011911,
1.993,5.010596,
1.994,5.010267,
1.995,5.011582,
1.996,5.011911,
1.997,5.010267,
1.998,5.009281,
1.999,5.009281,
2,5.009281,
2.001,5.009281,
2.002,5.009281,
2.003,5.008952,
2.004,5.011253,
2.005,5.011582,
2.006,5.009609,
2.007,5.008952,
2.008,5.009609,
2.009,5.011253,
2.01,5.010925,
2.011,5.010267,
2.012,5.012569,
2.013,5.013226,
2.014,5.013884,
2.015,5.011253,
2.016,5.013226,
2.017,5.013226,
2.018,5.014213,
2.019,5.013226,
2.02,5.013555,
2.021,5.014213,
2.022,5.015856,
2.023,5.013884,
2.024,5.01224,
2.025,5.012897,
2.026,5.013884,
2.027,5.014213,
2.028,5.013555,
2.029,5.012897,
2.03,5.014213,
2.031,5.013555,
2.032,5.010267,
2.033,5.009609,
2.034,5.009938,
2.035,5.010925,
2.036,5.010267,
2.037,5.009938,
2.038,5.009938,
2.039,5.011253,
2.04,5.011911,
2.041,5.009938,
2.042,5.008952,
2.043,5.010925,
2.044,5.011582,
2.045,5.011253,
2.046,5.010596,
2.047,5.011253,
2.048,5.01224,
2.049,5.011253,
2.05,5.010596,
2.051,5.010925,
2.052,5.013555,
2.053,5.014541,
2.054,5.013555,
2.055,5.013555,
2.056,5.014213,
2.057,5.013226,
2.058,5.013884,
2.059,5.013226,
2.06,5.013226,
2.061,5.01487,
2.062,5.014213,
2.063,5.014213,
2.064,5.01224,
2.065,5.01224,
2.066,5.013555,
2.067,5.012569,
2.068,5.011911,
2.069,5.010925,
2.07,5.011911,
2.071,5.011582,
2.072,5.010267,
2.073,5.008623,
2.074,5.007637,
2.075,5.009609,
2.076,5.010596,
2.077,5.008952,
2.078,5.008623,
2.079,5.010925,
2.08,5.010267,
2.081,5.010596,
2.082,5.007637,
2.083,5.007637,
2.084,5.009609,
2.085,5.009281,
2.086,5.008952,
2.087,5.009938,
2.088,5.011911,
2.089,5.012897,
2.09,5.010267,
2.091,5.009938,
2.092,5.011253,
2.093,5.013226,
2.094,5.012897,
2.095,5.01224,
2.096,5.013226,
2.097,5.014541,
2.098,5.013226,
2.099,5.010596,
2.1,5.010596,
2.101,5.011253,
2.102,5.013226,
2.103,5.012897,
2.104,5.011582,
2.105,5.012897,
2.106,5.012897,
2.107,5.010596,
2.108,5.008952,
2.109,5.009938,
2.11,5.009938,
2.111,5.010267,
2.112,5.009281,
2.113,5.009609,
2.114,5.010267,
2.115,5.009938,
2.116,5.008294,
2.117,5.007965,
2.118,5.008952,
2.119,5.010596,
2.12,5.010596,
2.121,5.009281,
2.122,5.010267,
2.123,5.010925,
2.124,5.010267,
2.125,5.009609,
2.126,5.010267,
2.127,5.011911,
2.128,5.013555,
2.129,5.012569,
2.13,5.01224,
2.131,5.013555,
2.132,5.013555,
2.133,5.013555,
2.134,5.011911,
2.135,5.012569,
2.136,5.013884,
2.137,5.014213,
2.138,5.012569,
2.139,5.013555,
2.14,5.014213,
2.141,5.013555,
2.142,5.011911,
2.143,5.011911,
2.144,5.012569,
2.145,5.013555,
2.146,5.011582,
2.147,5.011911,
2.148,5.011253,
2.149,5.010267,
2.15,5.010267,
2.151,5.009609,
2.152,5.008952,
2.153,5.010925,
2.154,5.010596,
2.155,5.011911,
2.156,5.010925,
2.157,5.009281,
2.158,5.011582,
2.159,5.011253,
2.16,5.009938,
2.161,5.010596,
2.162,5.011253,
2.163,5.01224,
2.164,5.012569,
2.165,5.010596,
2.166,5.01224,
2.167,5.014213,
2.168,5.013226,
2.169,5.013884,
2.17,5.013555,
2.171,5.015199,
2.172,5.015856,
2.173,5.012897,
2.174,5.01224,
2.175,5.013226,
2.176,5.013555,
2.177,5.014213,
2.178,5.01224,
2.179,5.013884,
2.18,5.014213,
2.181,5.013884,
2.182,5.010596,
2.183,5.009938,
2.184,5.010925,
2.185,5.011582,
2.186,5.009609,
2.187,5.009609,
2.188,5.009938,
2.189,5.009938,
2.19,5.008294,
2.191,5.007637,
2.192,5.008952,
2.193,5.009609,
2.194,5.009281,
2.195,5.008294,
2.196,5.009281,
2.197,5.011582,
2.198,5.009609,
2.199,5.007965,
2.2,5.007965,
2.201,5.010267,
2.202,5.010925,
2.203,5.010596,
2.204,5.011253,
2.205,5.01224,
2.206,5.014213,
2.207,5.012897,
2.208,5.010596,
2.209,5.011253,
2.21,5.013226,
2.211,5.014213,
2.212,5.012897,
2.213,5.01224,
2.214,5.013555,
2.215,5.013884,
2.216,5.011911,
2.217,5.010596,
2.218,5.01224,
2.219,5.012897,
2.22,5.013226,
2.221,5.011582,
2.222,5.011582,
2.223,5.011911,
2.224,5.010596,
2.225,5.009281,
2.226,5.008623,
2.227,5.009609,
2.228,5.010596,
2.229,5.010596,
2.23,5.011253,
2.231,5.010267,
2.232,5.009609,
2.233,5.010925,
2.234,5.009609,
2.235,5.009281,
2.236,5.011253,
2.237,5.011911,
2.238,5.012569,
2.239,5.010925,
2.24,5.010925,
2.241,5.01224,
2.242,5.013884,
2.243,5.012569,
2.244,5.013555,
2.245,5.014541,
2.246,5.015856,
2.247,5.014213,
2.248,5.013226,
2.249,5.012897,
2.25,5.015199,
2.251,5.014213,
2.252,5.013226,
2.253,5.012569,
2.254,5.014541,
2.255,5.015199,
2.256,5.013555,
2.257,5.011253,
2.258,5.012569,
2.259,5.013226,
2.26,5.011582,
2.261,5.010596,
2.262,5.011582,
2.263,5.01224,
2.264,5.011911,
2.265,5.008952,
2.266,5.009281,
2.267,5.010596,
2.268,5.010596,
2.269,5.009609,
2.27,5.009938,
2.271,5.011253,
2.272,5.011253,
2.273,5.009281,
2.274,5.009281,
2.275,5.009938,
2.276,5.010925,
2.277,5.011582,
2.278,5.010925,
2.279,5.01224,
2.28,5.013884,
2.281,5.013884,
2.282,5.012569,
2.283,5.011582,
2.284,5.013226,
2.285,5.014213,
2.286,5.013884,
2.287,5.013226,
2.288,5.012897,
2.289,5.013884,
2.29,5.013884,
2.291,5.011911,
2.292,5.010925,
2.293,5.01224,
2.294,5.013555,
2.295,5.012897,
2.296,5.01224,
2.297,5.010596,
2.298,5.012569,
2.299,5.010596,
2.3,5.009281,
2.301,5.007965,
2.302,5.009609,
2.303,5.009281,
2.304,5.010267,
2.305,5.008952,
2.306,5.008623,
2.307,5.009281,
2.308,5.009281,
2.309,5.007637,
2.31,5.008294,
2.311,5.009609,
2.312,5.010267,
2.313,5.010596,
2.314,5.008623,
2.315,5.009281,
2.316,5.009609,
2.317,5.009609,
2.318,5.010596,
2.319,5.010596,
2.32,5.010925,
2.321,5.013555,
2.322,5.013884,
2.323,5.011911,
2.324,5.010267,
2.325,5.011253,
2.326,5.013226,
2.327,5.011582,
2.328,5.011253,
2.329,5.013555,
2.33,5.013555,
2.331,5.013226,
2.332,5.010267,
2.333,5.011253,
2.334,5.011911,
2.335,5.011582,
2.336,5.009938,
2.337,5.009609,
2.338,5.011253,
2.339,5.011582,
2.34,5.008623,
2.341,5.00665,
2.342,5.007965,
2.343,5.009938,
2.344,5.009281,
2.345,5.008623,
2.346,5.008952,
2.347,5.010267,
2.348,5.010267,
2.349,5.007965,
2.35,5.007308,
2.351,5.009609,
2.352,5.009938,
2.353,5.009609,
2.354,5.009281,
2.355,5.010596,
2.356,5.012569,
2.357,5.011911,
2.358,5.011911,
2.359,5.012569,
2.36,5.012897,
2.361,5.014541,
2.362,5.013884,
2.363,5.012897,
2.364,5.014213,
2.365,5.014213,
2.366,5.013226,
2.367,5.012569,
2.368,5.011253,
2.369,5.014213,
2.37,5.014213,
2.371,5.013226,
2.372,5.013555,
2.373,5.012569,
2.374,5.01224,
2.375,5.011911,
2.376,5.010267,
2.377,5.011253,
2.378,5.012897,
2.379,5.011582,
2.38,5.011911,
2.381,5.010596,
2.382,5.009938,
2.383,5.010925,
2.384,5.009938,
2.385,5.009281,
2.386,5.010267,
2.387,5.011911,
2.388,5.011911,
2.389,5.011253,
2.39,5.009281,
2.391,5.010267,
2.392,5.011911,
2.393,5.011582,
2.394,5.011911,
2.395,5.013226,
2.396,5.015199,
2.397,5.015199,
2.398,5.014213,
2.399,5.011582,
2.4,5.014213,
2.401,5.013884,
2.402,5.013884,
2.403,5.013884,
2.404,5.013884,
2.405,5.014541,
2.406,5.013884,
2.407,5.011911,
2.408,5.011582,
2.409,5.014541,
2.41,5.013555,
2.411,5.012569,
2.412,5.01224,
2.413,5.013226,
2.414,5.013226,
2.415,5.008952,
2.416,5.008294,
2.417,5.008623,
2.418,5.010596,
2.419,5.009609,
2.42,5.008623,
2.421,5.009938,
2.422,5.010267,
2.423,5.010267,
2.424,5.007637,
2.425,5.007308,
2.426,5.009609,
2.427,5.011253,
2.428,5.009281,
2.429,5.009609,
2.43,5.009281,
2.431,5.010925,
2.432,5.010596,
2.433,5.009281,
2.434,5.011253,
2.435,5.012569,
2.436,5.012569,
2.437,5.01224,
2.438,5.011911,
2.439,5.012569,
2.44,5.013226,
2.441,5.012569,
2.442,5.010596,
2.443,5.011911,
2.444,5.013226,
2.445,5.011911,
2.446,5.011911,
2.447,5.013555,
2.448,5.013226,
2.449,5.011582,
2.45,5.009938,
2.451,5.009281,
2.452,5.010925,
2.453,5.010267,
2.454,5.009281,
2.455,5.010267,
2.456,5.010925,
2.457,5.009281,
2.458,5.007965,
2.459,5.008623,
2.46,5.009938,
2.461,5.009609,
2.462,5.008623,
2.463,5.009938,
2.464,5.011253,
2.465,5.009938,
2.466,5.008623,
2.467,5.008623,
2.468,5.009938,
2.469,5.011253,
2.47,5.011911,
2.471,5.010925,
2.472,5.013226,
2.473,5.013884,
2.474,5.013226,
2.475,5.013226,
2.476,5.011582,
2.477,5.013226,
2.478,5.015199,
2.479,5.014213,
2.48,5.012897,
2.481,5.013884,
2.482,5.013226,
2.483,5.013555,
2.484,5.01224,
2.485,5.01224,
2.486,5.013555,
2.487,5.014541,
2.488,5.013555,
2.489,5.011911,
2.49,5.010925,
2.491,5.011911,
2.492,5.011253,
2.493,5.009609,
2.494,5.009281,
2.495,5.010925,
2.496,5.010925,
2.497,5.011253,
2.498,5.010267,
2.499,5.008952,
2.5,5.010925,
2.501,5.011253,
2.502,5.010596,
2.503,5.010267,
2.504,5.011911,
2.505,5.01224,
2.506,5.011582,
2.507,5.009609,
2.508,5.010925,
2.509,5.012569,
2.51,5.012897,
2.511,5.013555,
2.512,5.013884,
2.513,5.015199,
2.514,5.015199,
2.515,5.012897,
2.516,5.012569,
2.517,5.013226,
2.518,5.013884,
2.519,5.013226,
2.52,5.012569,
2.521,5.013555,
2.522,5.014541,
2.523,5.013884,
2.524,5.011253,
2.525,5.011253,
2.526,5.011911,
2.527,5.01224,
2.528,5.011582,
2.529,5.009609,
2.53,5.009938,
2.531,5.010596,
2.532,5.008623,
2.533,5.007308,
2.534,5.007965,
2.535,5.009609,
2.536,5.009281,
2.537,5.009609,
2.538,5.009281,
2.539,5.009938,
2.54,5.009609,
2.541,5.008952,
2.542,5.008294,
2.543,5.009281,
2.544,5.009609,
2.545,5.009938,
2.546,5.009609,
2.547,5.010596,
2.548,5.01224,
2.549,5.010925,
2.55,5.01224,
2.551,5.010925,
2.552,5.01224,
2.553,5.012897,
2.554,5.012897,
2.555,5.013226,
2.556,5.012569,
2.557,5.011582,
2.558,5.013226,
2.559,5.01224,
2.56,5.011911,
2.561,5.01224,
2.562,5.014213,
2.563,5.013555,
2.564,5.012569,
2.565,5.010267,
2.566,5.010925,
2.567,5.011253,
2.568,5.009281,
2.569,5.008952,
2.57,5.010267,
2.571,5.012569,
2.572,5.010267,
2.573,5.009281,
2.574,5.009938,
2.575,5.010267,
2.576,5.010267,
2.577,5.008623,
2.578,5.010925,
2.579,5.011911,
2.58,5.012569,
2.581,5.010596,
2.582,5.008623,
2.583,5.010925,
2.584,5.011911,
2.585,5.010925,
2.586,5.011911,
2.587,5.013226,
2.588,5.01487,
2.589,5.01487,
2.59,5.01224,
2.591,5.013226,
2.592,5.013884,
2.593,5.013226,
2.594,5.013226,
2.595,5.014213,
2.596,5.01487,
2.597,5.015528,
2.598,5.011911,
2.599,5.011582,
2.6,5.013884,
2.601,5.013226,
2.602,5.012569,
2.603,5.011253,
2.604,5.01224,
2.605,5.011911,
2.606,5.009938,
2.607,5.008623,
2.608,5.008623,
2.609,5.010925,
2.61,5.009938,
2.611,5.009609,
2.612,5.009938,
2.613,5.010596,
2.614,5.009938,
2.615,5.007637,
2.616,5.007965,
2.617,5.009281,
2.618,5.008952,
2.619,5.008294,
2.62,5.008623,
2.621,5.009281,
2.622,5.010925,
2.623,5.011911,
2.624,5.009609,
2.625,5.010267,
2.626,5.011911,
2.627,5.012569,
2.628,5.01224,
2.629,5.011911,
2.63,5.013226,
2.631,5.012897,
2.632,5.011582,
2.633,5.011253,
2.634,5.010267,
2.635,5.012897,
2.636,5.013226,
2.637,5.012569,
2.638,5.011582,
2.639,5.012569,
2.64,5.012897,
2.641,5.011253,
2.642,5.008952,
2.643,5.008952,
2.644,5.011253,
2.645,5.011253,
2.646,5.009281,
2.647,5.009609,
2.648,5.011253,
2.649,5.009609,
2.65,5.009609,
2.651,5.010267,
2.652,5.010596,
2.653,5.010925,
2.654,5.010596,
2.655,5.010925,
2.656,5.011911,
2.657,5.010596,
2.658,5.011253,
2.659,5.010267,
2.66,5.010596,
2.661,5.012569,
2.662,5.013555,
2.663,5.013226,
2.664,5.013226,
2.665,5.013884,
2.666,5.013884,
2.667,5.014213,
2.668,5.012897,
2.669,5.013226,
2.67,5.01487,
2.671,5.015528,
2.672,5.013884,
2.673,5.012569,
2.674,5.013555,
2.675,5.013884,
2.676,5.013884,
2.677,5.012569,
2.678,5.012569,
2.679,5.014541,
2.68,5.013226,
2.681,5.011253,
2.682,5.009281,
2.683,5.010596,
2.684,5.011253,
2.685,5.009281,
2.686,5.008952,
2.687,5.010596,
2.688,5.011911,
2.689,5.011253,
2.69,5.008623,
2.691,5.007965,
2.692,5.010267,
2.693,5.010596,
2.694,5.009938,
2.695,5.009609,
2.696,5.011253,
2.697,5.011582,
2.698,5.009609,
2.699,5.008952,
2.7,5.010925,
2.701,5.011911,
2.702,5.010925,
2.703,5.011911,
2.704,5.012569,
2.705,5.013884,
2.706,5.013226,
2.707,5.010596,
2.708,5.010267,
2.709,5.012569,
2.71,5.01224,
2.711,5.010925,
2.712,5.01224,
2.713,5.012569,
2.714,5.013555,
2.715,5.010267,
2.716,5.009281,
2.717,5.010596,
2.718,5.010596,
2.719,5.009938,
2.72,5.008952,
2.721,5.008952,
2.722,5.011253,
2.723,5.009609,
2.724,5.007308,
2.725,5.007637,
2.726,5.008623,
2.727,5.009938,
2.728,5.008952,
2.729,5.008623,
2.73,5.010925,
2.731,5.010596,
2.732,5.008952,
2.733,5.008623,
2.734,5.009609,
2.735,5.010596,
2.736,5.010267,
2.737,5.010267,
2.738,5.012569,
2.739,5.014541,
2.74,5.013884,
2.741,5.011911,
2.742,5.011911,
2.743,5.014541,
2.744,5.014541,
2.745,5.013555,
2.746,5.013226,
2.747,5.01487,
2.748,5.015199,
2.749,5.012569,
2.75,5.011911,
2.751,5.013226,
2.752,5.014213,
2.753,5.013884,
2.754,5.013226,
2.755,5.011911,
2.756,5.013226,
2.757,5.011911,
2.758,5.010267,
2.759,5.009609,
2.76,5.009938,
2.761,5.011582,
2.762,5.010267,
2.763,5.010267,
2.764,5.009938,
2.765,5.010596,
2.766,5.009938,
2.767,5.009609,
2.768,5.008952,
2.769,5.010925,
2.77,5.011582,
2.771,5.009938,
2.772,5.010267,
2.773,5.009938,
2.774,5.011253,
2.775,5.010267,
2.776,5.010596,
2.777,5.012897,
2.778,5.014541,
2.779,5.013555,
2.78,5.013226,
2.781,5.013226,
2.782,5.014213,
2.783,5.013226,
2.784,5.012569,
2.785,5.011911,
2.786,0.101391,
2.787,0.088897,
2.788,0.088568,
2.789,0.088897,
2.79,0.088897,
2.791,0.089226,
2.792,0.088568,
2.793,0.088897,
2.794,0.089226,
2.795,0.088568,
2.796,0.088897,
2.797,0.088568,
2.798,0.088568,
2.799,0.088897,
2.8,0.088568,
2.801,0.089226,
2.802,0.088568,
2.803,0.088568,
2.804,0.088568,
2.805,0.088897,
2.806,0.088568,
2.807,0.088897,
2.808,0.088897,
2.809,0.088897,
2.81,0.088897,
2.811,0.088568,
2.812,0.089554,
2.813,0.088568,
2.814,0.091198,
2.815,5.008623,
2.816,5.009281,
2.817,5.011911,
2.818,5.012569,
2.819,5.011582,
2.82,5.011253,
2.821,5.012569,
2.822,5.013884,
2.823,5.013226,
2.824,5.010925,
2.825,5.010925,
2.826,5.012569,
2.827,5.01224,
2.828,5.011582,
2.829,5.011911,
2.83,5.013226,
2.831,5.012569,
2.832,5.010267,
2.833,5.007965,
2.834,5.009281,
2.835,5.009938,
2.836,5.010925,
2.837,5.008294,
2.838,5.008623,
2.839,5.009609,
2.84,5.008623,
2.841,5.007965,
2.842,5.006979,
2.843,5.008623,
2.844,5.010267,
2.845,5.009609,
2.846,5.008952,
2.847,5.009609,
2.848,5.009938,
2.849,5.009938,
2.85,5.008623,
2.851,5.009609,
2.852,5.009609,
2.853,5.01224,
2.854,5.011582,
2.855,5.012569,
2.856,5.012897,
2.857,5.013226,
2.858,5.012897,
2.859,5.011911,
2.86,5.011911,
2.861,5.013884,
2.862,5.013555,
2.863,5.011911,
2.864,5.013884,
2.865,5.013226,
2.866,5.011253,
2.867,5.011582,
2.868,5.010596,
2.869,5.011911,
2.87,5.013884,
2.871,5.011253,
2.872,5.011253,
2.873,5.010596,
2.874,5.008952,
2.875,5.010925,
2.876,5.008952,
2.877,5.007965,
2.878,5.009938,
2.879,5.011253,
2.88,5.010925,
2.881,5.009609,
2.882,5.008294,
2.883,5.010267,
2.884,5.010925,
2.885,5.010267,
2.886,5.009609,
2.887,5.011253,
2.888,5.01224,
2.889,5.012569,
2.89,5.010596,
2.891,5.010925,
2.892,5.013555,
2.893,5.014213,
2.894,5.013555,
2.895,5.01224,
2.896,5.01487,
2.897,5.015856,
2.898,5.013555,
2.899,5.011911,
2.9,5.01224,
2.901,5.014541,
2.902,5.013884,
2.903,5.01224,
2.904,5.013555,
2.905,5.013884,
2.906,5.01487,
2.907,5.012569,
2.908,5.010596,
2.909,5.011582,
2.91,5.011582,
2.911,5.010267,
2.912,5.009938,
2.913,5.011253,
2.914,5.011253,
2.915,5.009938,
2.916,5.009938,
2.917,5.007965,
2.918,5.009281,
2.919,5.011582,
2.92,5.009281,
2.921,5.008623,
2.922,5.009609,
2.923,5.009609,
2.924,5.008294,
2.925,5.007308,
2.926,5.007965,
2.927,5.010267,
2.928,5.011253,
2.929,5.010925,
2.93,5.010925,
2.931,5.011253,
2.932,5.012569,
2.933,5.011582,
2.934,5.010267,
2.935,5.011253,
2.936,5.012569,
2.937,5.013884,
2.938,5.012569,
2.939,5.011582,
2.94,5.011911,
2.941,5.011911,
2.942,5.01224,
2.943,5.010596,
2.944,5.011911,
2.945,5.012569,
2.946,5.011911,
2.947,5.010925,
2.948,5.010925,
2.949,5.009281,
2.95,5.009609,
2.951,5.008952,
2.952,5.007637,
2.953,5.009281,
2.954,5.010267,
2.955,5.009281,
2.956,5.008623,
2.957,5.007308,
2.958,5.007965,
2.959,5.009609,
2.96,5.007965,
2.961,5.008623,
2.962,5.009609,
2.963,5.011253,
2.964,5.010925,
2.965,5.007637,
2.966,5.007965,
2.967,5.010596,
2.968,5.011253,
2.969,5.010596,
2.97,5.011253,
2.971,5.013555,
2.972,5.014213,
2.973,5.013226,
2.974,5.010596,
2.975,5.011253,
2.976,5.013226,
2.977,5.012569,
2.978,5.011911,
2.979,5.011911,
2.98,5.013226,
2.981,5.013555,
2.982,5.011253,
2.983,5.009609,
2.984,5.011253,
2.985,5.011911,
2.986,5.010925,
2.987,5.009938,
2.988,5.009281,
2.989,5.011911,
2.99,5.010267,
2.991,5.008623,
2.992,5.007637,
2.993,5.008952,
2.994,5.009938,
2.995,5.008952,
2.996,5.008623,
2.997,5.010925,
2.998,5.009938,
2.999,5.008294,
3,5.007308,
3.001,5.008952,
3.002,5.011911,
3.003,5.010925,
3.004,5.011582,
3.005,5.011911,
3.006,5.013555,
3.007,5.013226,
3.008,5.01224,
3.009,5.01224,
3.01,5.013884,
3.011,5.014541,
3.012,5.013884,
3.013,5.013884,
3.014,5.014213,
3.015,5.015199,
3.016,5.012897,
3.017,5.01224,
3.018,5.013555,
3.019,5.013226,
3.02,5.015199,
3.021,5.013226,
3.022,5.012569,
3.023,5.013226,
3.024,5.011253,
3.025,5.009938,
3.026,5.010267,
3.027,5.011253,
3.028,5.011582,
3.029,5.009938,
3.03,5.010267,
3.031,5.010925,
3.032,5.010596,
3.033,5.009938,
3.034,5.008623,
3.035,5.009281,
3.036,5.010925,
3.037,5.010596,
3.038,5.009938,
3.039,5.010267,
3.04,5.010267,
3.041,5.010267,
3.042,5.008623,
3.043,5.011582,
3.044,5.012569,
3.045,5.012569,
3.046,5.01224,
3.047,5.012897,
3.048,5.012897,
3.049,5.013226,
3.05,5.011253,
3.051,5.01224,
3.052,5.012569,
3.053,5.013884,
3.054,5.013555,
3.055,5.011582,
3.056,5.011911,
3.057,5.01224,
3.058,5.011582,
3.059,5.011911,
3.06,5.009281,
3.061,5.011582,
3.062,5.01224,
3.063,5.009609,
3.064,5.009938,
3.065,5.008623,
3.066,5.008623,
3.067,5.008952,
3.068,5.00665,
3.069,5.007308,
3.07,5.009938,
3.071,5.009281,
3.072,5.009938,
3.073,5.007637,
3.074,5.007965,
3.075,5.008952,
3.076,5.007965,
3.077,5.007965,
3.078,5.008952,
3.079,5.011253,
3.08,5.011582,
3.081,5.010267,
3.082,5.009609,
3.083,5.010267,
3.084,5.011582,
3.085,5.012569,
3.086,5.011253,
3.087,5.012569,
3.088,5.013884,
3.089,5.013555,
3.09,5.011582,
3.091,5.011253,
3.092,5.012897,
3.093,5.012897,
3.094,5.011582,
3.095,5.010925,
3.096,5.012897,
3.097,5.014213,
3.098,5.011253,
3.099,5.009281,
3.1,5.009938,
3.101,5.010596,
3.102,5.010267,
3.103,5.008623,
3.104,5.008952,
3.105,5.010596,
3.106,5.011253,
3.107,5.007965,
3.108,5.007965,
3.109,5.007965,
3.11,5.009938,
3.111,5.008952,
3.112,5.007965,
3.113,5.010267,
3.114,5.011253,
3.115,5.008952,
3.116,5.008294,
3.117,5.008952,
3.118,5.010596,
3.119,5.011582,
3.12,5.010596,
3.121,5.011911,
3.122,5.013226,
3.123,5.014541,
3.124,5.011911,
3.125,5.011253,
3.126,5.013226,
3.127,5.013884,
3.128,5.013884,
3.129,5.012897,
3.13,5.013555,
3.131,5.01487,
3.132,5.013555,
3.133,5.011253,
3.134,5.011911,
3.135,5.012897,
3.136,5.014541,
3.137,5.013226,
3.138,5.011253,
3.139,5.012569,
3.14,5.011253,
3.141,5.010267,
3.142,5.009281,
3.143,5.009281,
3.144,5.010925,
3.145,5.011582,
3.146,5.009609,
3.147,5.010267,
3.148,5.010596,
3.149,5.010596,
3.15,5.009609,
3.151,5.008623,
3.152,5.009938,
3.153,5.010925,
3.154,5.011253,
3.155,5.010925,
3.156,5.011253,
3.157,5.011253,
3.158,5.011582,
3.159,5.01224,
3.16,5.012569,
3.161,5.013555,
3.162,5.01487,
3.163,5.014213,
3.164,5.013555,
3.165,5.013226,
3.166,5.013555,
3.167,5.013884,
3.168,5.01224,
3.169,5.011582,
3.17,5.013555,
3.171,5.013884,
3.172,5.012569,
3.173,5.011911,
3.174,5.011582,
3.175,5.013226,
3.176,5.011582,
3.177,5.010267,
3.178,5.010596,
3.179,5.011582,
3.18,5.011253,
3.181,5.008952,
3.182,5.008294,
3.183,5.009609,
3.184,5.009281,
3.185,5.009281,
3.186,5.007965,
3.187,5.008623,
3.188,5.010925,
3.189,5.009609,
3.19,5.008294,
3.191,5.008623,
3.192,5.009281,
3.193,5.008952,
3.194,5.009281,
3.195,5.009938,
3.196,5.01224,
3.197,5.01224,
3.198,5.010925,
3.199,5.009609,
3.2,5.011582,
3.201,5.01224,
3.202,5.011911,
3.203,5.010596,
3.204,5.01224,
3.205,5.013555,
3.206,5.013884,
3.207,5.010267,
3.208,5.009938,
3.209,5.011911,
3.21,5.012897,
3.211,5.01224,
3.212,5.010925,
3.213,5.011911,
3.214,5.012897,
3.215,5.009938,
3.216,5.008294,
3.217,5.008623,
3.218,5.008623,
3.219,5.009938,
3.22,5.007965,
3.221,5.008294,
3.222,5.009281,
3.223,5.009281,
3.224,5.008623,
3.225,5.00665,
3.226,5.007637,
3.227,5.009281,
3.228,5.009609,
3.229,5.008623,
3.23,5.009281,
3.231,5.010596,
3.232,5.010267,
3.233,5.009281,
3.234,5.008952,
3.235,5.009938,
3.236,5.012569,
3.237,5.012569,
3.238,5.011911,
3.239,5.01224,
3.24,5.013226,
3.241,5.01224,
3.242,5.011253,
3.243,5.010925,
3.244,5.012569,
3.245,5.013555,
3.246,5.011911,
3.247,5.011253,
3.248,5.011911,
3.249,5.011582,
3.25,5.011253,
3.251,5.009281,
3.252,5.009938,
3.253,5.011911,
3.254,5.010596,
3.255,5.010267,
3.256,5.008952,
3.257,5.009281,
3.258,5.008952,
3.259,5.007965,
3.26,5.007637,
3.261,5.008952,
3.262,5.009938,
3.263,5.010267,
3.264,5.010267,
3.265,5.007965,
3.266,5.008952,
3.267,5.009938,
3.268,5.008623,
3.269,5.008623,
3.27,5.010267,
3.271,5.011582,
3.272,5.01224,
3.273,5.011911,
3.274,5.010596,
3.275,5.012897,
3.276,5.012897,
3.277,5.011582,
3.278,5.012569,
3.279,5.013555,
3.28,5.013884,
3.281,5.013555,
3.282,5.010925,
3.283,5.012897,
3.284,5.013884,
3.285,5.012897,
3.286,5.012569,
3.287,5.013226,
3.288,5.014541,
3.289,5.01487,
3.29,5.011253,
3.291,5.010596,
3.292,5.011582,
3.293,5.01224,
3.294,5.011253,
3.295,5.009281,
3.296,5.011582,
3.297,5.01224,
3.298,5.011253,
3.299,5.008623,
3.3,5.007965,
3.301,5.010267,
3.302,5.011253,
3.303,5.009281,
3.304,5.009938,
3.305,5.011253,
3.306,5.011911,
3.307,5.009938,
3.308,5.008952,
3.309,5.010925,
3.31,5.01224,
3.311,5.012897,
3.312,5.012569,
3.313,5.012897,
3.314,5.01487,
3.315,5.013884,
3.316,5.012897,
3.317,5.011911,
3.318,5.01224,
3.319,5.014541,
3.32,5.015199,
3.321,5.013884,
3.322,5.012569,
3.323,5.012897,
3.324,5.012897,
3.325,5.013226,
3.326,5.01224,
3.327,5.011911,
3.328,5.012897,
3.329,5.01224,
3.33,5.011253,
3.331,5.009938,
3.332,5.009609,
3.333,5.009281,
3.334,5.008623,
3.335,5.008623,
3.336,5.009281,
3.337,5.009938,
3.338,5.010267,
3.339,5.008952,
3.34,5.008952,
3.341,5.009938,
3.342,5.009281,
3.343,5.009281,
3.344,5.008294,
3.345,5.009938,
3.346,5.011911,
3.347,5.010925,
3.348,5.008952,
3.349,5.009281,
3.35,5.010596,
3.351,5.013226,
3.352,5.011253,
3.353,5.010596,
3.354,5.01224,
3.355,5.013226,
3.356,5.013226,
3.357,5.010596,
3.358,5.010596,
3.359,5.011582,
3.36,5.012569,
3.361,5.01224,
3.362,5.011253,
3.363,5.012897,
3.364,5.012897,
3.365,5.010925,
3.366,5.009609,
3.367,5.009938,
3.368,5.010596,
3.369,5.010596,
3.37,5.008294,
3.371,5.008294,
3.372,5.010267,
3.373,5.009609,
3.374,5.008294,
3.375,5.00665,
3.376,5.008294,
3.377,5.008952,
3.378,5.008952,
3.379,5.008294,
3.38,5.009281,
3.381,5.010596,
3.382,5.008623,
3.383,5.007308,
3.384,5.008294,
3.385,5.009938,
3.386,5.010925,
3.387,5.009938,
3.388,5.010925,
3.389,5.012897,
3.39,5.013555,
3.391,5.011911,
3.392,5.010925,
3.393,5.01224,
3.394,5.013555,
3.395,5.013226,
3.396,5.01224,
3.397,5.01224,
3.398,5.014213,
3.399,5.012569,
3.4,5.012569,
3.401,5.011582,
3.402,5.011582,
3.403,5.013226,
3.404,5.013555,
3.405,5.01224,
3.406,5.011911,
3.407,5.010596,
3.408,5.010596,
3.409,5.010267,
3.41,5.009281,
3.411,5.009938,
3.412,5.010925,
3.413,5.011253,
3.414,5.010596,
3.415,5.009281,
3.416,5.009609,
3.417,5.011253,
3.418,5.010267,
3.419,5.009609,
3.42,5.009281,
3.421,5.011911,
3.422,5.01224,
3.423,5.010925,
3.424,5.009609,
3.425,5.010925,
3.426,5.01224,
3.427,5.013884,
3.428,5.012569,
3.429,5.013226,
3.43,5.014213,
3.431,5.014541,
3.432,5.01224,
3.433,5.011911,
3.434,5.012569,
3.435,5.012569,
3.436,5.013226,
3.437,5.011911,
3.438,5.012569,
3.439,5.013555,
3.44,5.011911,
3.441,5.010596,
3.442,5.010596,
3.443,5.011253,
3.444,5.01224,
3.445,5.010267,
3.446,5.009609,
3.447,5.009609,
3.448,5.009938,
3.449,5.008294,
3.45,5.007308,
3.451,5.006979,
3.452,5.009281,
3.453,5.009938,
3.454,5.010267,
3.455,5.008952,
3.456,5.008952,
3.457,5.008952,
3.458,5.009281,
3.459,5.008294,
3.46,5.007637,
3.461,5.008294,
3.462,5.011253,
3.463,5.010925,
3.464,5.010596,
3.465,5.010596,
3.466,5.011582,
3.467,5.012569,
3.468,5.011253,
3.469,5.010267,
3.47,5.013226,
3.471,5.013884,
3.472,5.013884,
3.473,5.011582,
3.474,5.010925,
3.475,5.011911,
3.476,5.013555,
3.477,5.011253,
3.478,5.01224,
3.479,5.012569,
3.48,5.013555,
3.481,5.01224,
3.482,5.009609,
3.483,5.008952,
3.484,5.009938,
3.485,5.009281,
3.486,5.007637,
3.487,5.008294,
3.488,5.010267,
3.489,5.010267,
3.49,5.008294,
3.491,5.007965,
3.492,5.008623,
3.493,5.008623,
3.494,5.008952,
3.495,5.007965,
3.496,5.010596,
3.497,5.010925,
3.498,5.010267,
3.499,5.007637,
3.5,5.007965,
3.501,5.010596,
3.502,5.01224,
3.503,5.011253,
3.504,5.011253,
3.505,5.011911,
3.506,5.013555,
3.507,5.013226,
3.508,5.010925,
3.509,5.011911,
3.51,5.012897,
3.511,5.013884,
3.512,5.011582,
3.513,5.011582,
3.514,5.01487,
3.515,5.012897,
3.516,5.010925,
3.517,5.010925,
3.518,5.011582,
3.519,5.01224,
3.52,5.011253,
3.521,5.009938,
3.522,5.010925,
3.523,5.011582,
3.524,5.009281,
3.525,5.009281,
3.526,5.008294,
3.527,5.010267,
3.528,5.011253,
3.529,5.009281,
3.53,5.010267,
3.531,5.011253,
3.532,5.010596,
3.533,5.009609,
3.534,5.008952,
3.535,5.009938,
3.536,5.011582,
3.537,5.011253,
3.538,5.010596,
3.539,5.011911,
3.54,5.012569,
3.541,5.012569,
3.542,5.011911,
3.543,5.012569,
3.544,5.014213,
3.545,5.014213,
3.546,5.014213,
3.547,5.012897,
3.548,5.013884,
3.549,5.013884,
3.55,5.013226,
3.551,5.013555,
3.552,5.012569,
3.553,5.013555,
3.554,5.014541,
3.555,5.014541,
3.556,5.012569,
3.557,5.011582,
3.558,5.01224,
3.559,5.01224,
3.56,5.009938,
3.561,5.009609,
3.562,5.010925,
3.563,5.012569,
3.564,5.011582,
3.565,5.008623,
3.566,5.008294,
3.567,5.009938,
3.568,5.010596,
3.569,5.009609,
3.57,5.008623,
3.571,5.010596,
3.572,5.011253,
3.573,5.009609,
3.574,5.008294,
3.575,5.009281,
3.576,5.010596,
3.577,5.010925,
3.578,5.009938,
3.579,5.010925,
3.58,5.013226,
3.581,5.013555,
3.582,5.011582,
3.583,5.009938,
3.584,5.011253,
3.585,5.012569,
3.586,5.012569,
3.587,5.010925,
3.588,5.01224,
3.589,5.013884,
3.59,5.012569,
3.591,5.010596,
3.592,5.010925,
3.593,5.012569,
3.594,5.012569,
3.595,5.011582,
3.596,5.010267,
3.597,5.009938,
3.598,5.011253,
3.599,5.009609,
3.6,5.008294,
3.601,5.007965,
3.602,5.008294,
3.603,5.009281,
3.604,5.008294,
3.605,5.008623,
3.606,5.008952,
3.607,5.009281,
3.608,5.008294,
3.609,5.007308,
3.61,5.008623,
3.611,5.009938,
3.612,5.009281,
3.613,5.008623,
3.614,5.009609,
3.615,5.010596,
3.616,5.009938,
3.617,5.010267,
3.618,5.009609,
3.619,5.01224,
3.62,5.013884,
3.621,5.013555,
3.622,5.013555,
3.623,5.012897,
3.624,5.01224,
3.625,5.013884,
3.626,5.011911,
3.627,5.011253,
3.628,5.013884,
3.629,5.014541,
3.63,5.01224,
3.631,5.012569,
3.632,5.010596,
3.633,5.012569,
3.634,5.012897,
3.635,5.011253,
3.636,5.010596,
3.637,5.009938,
3.638,5.012897,
3.639,5.013226,
3.64,5.009281,
3.641,5.007965,
3.642,5.010596,
3.643,5.011253,
3.644,5.009938,
3.645,5.009938,
3.646,5.011582,
3.647,5.011911,
3.648,5.011253,
3.649,5.008952,
3.65,5.008952,
3.651,5.010596,
3.652,5.010925,
3.653,5.010267,
3.654,5.011253,
3.655,5.012569,
3.656,5.014541,
3.657,5.01224,
3.658,5.011582,
3.659,5.013555,
3.66,5.013884,
3.661,5.013555,
3.662,5.013555,
3.663,5.014213,
3.664,5.014541,
3.665,5.013884,
3.666,5.011253,
3.667,5.012569,
3.668,5.013555,
3.669,5.013884,
3.67,5.012569,
3.671,5.011911,
3.672,5.012569,
3.673,5.013555,
3.674,5.010267,
3.675,5.009609,
3.676,5.009938,
3.677,5.011253,
3.678,5.010596,
3.679,5.009281,
3.68,5.010925,
3.681,5.011253,
3.682,5.010267,
3.683,5.007965,
3.684,5.006979,
3.685,5.008952,
3.686,5.010925,
3.687,5.008294,
3.688,5.009609,
3.689,5.008952,
3.69,5.009609,
3.691,5.010267,
3.692,5.009938,
3.693,5.009609,
3.694,5.011911,
3.695,5.01224,
3.696,5.011911,
3.697,5.011582,
3.698,5.011911,
3.699,5.01224,
3.7,5.011911,
3.701,5.011582,
3.702,5.011582,
3.703,5.012569,
3.704,5.013555,
3.705,5.012569,
3.706,5.012569,
3.707,5.011911,
3.708,5.01224,
3.709,5.01224,
3.71,5.009609,
3.711,5.011911,
3.712,5.011253,
3.713,5.010596,
3.714,5.010267,
3.715,5.008294,
3.716,5.007637,
3.717,5.008623,
3.718,5.008294,
3.719,5.007308,
3.72,5.008952,
3.721,5.009938,
3.722,5.010925,
3.723,5.009281,
3.724,5.006979,
3.725,5.008294,
3.726,5.009938,
3.727,5.009609,
3.728,5.008294,
3.729,5.010596,
3.73,5.011911,
3.731,5.012569,
3.732,5.009609,
3.733,5.009938,
3.734,5.012569,
3.735,5.013555,
3.736,5.01224,
3.737,5.012569,
3.738,5.012897,
3.739,5.01487,
3.74,5.014541,
3.741,5.010925,
3.742,5.011253,
3.743,5.012897,
3.744,5.013555,
3.745,5.012569,
3.746,5.011911,
3.747,5.013884,
3.748,5.013884,
3.749,5.010925,
3.75,5.009938,
3.751,5.008952,
3.752,5.010596,
3.753,5.010596,
3.754,5.009281,
3.755,5.009281,
3.756,5.011582,
3.757,5.009609,
3.758,5.009281,
3.759,5.008952,
3.76,5.011582,
3.761,5.010925,
3.762,5.010267,
3.763,5.010596,
3.764,5.010925,
3.765,5.01224,
3.766,5.010596,
3.767,5.009281,
3.768,5.011253,
3.769,5.013226,
3.77,5.013226,
3.771,5.013555,
3.772,5.012897,
3.773,5.01224,
3.774,5.013226,
3.775,5.014541,
3.776,5.013226,
3.777,5.01224,
3.778,5.013884,
3.779,5.01487,
3.78,5.013884,
3.781,5.012569,
3.782,5.011911,
3.783,5.013555,
3.784,5.013884,
3.785,5.011253,
3.786,5.011253,
3.787,5.012897,
3.788,5.013555,
3.789,5.010596,
3.79,5.009281,
3.791,5.009609,
3.792,5.009609,
3.793,5.008294,
3.794,5.008952,
3.795,5.009609,
3.796,5.010596,
3.797,5.009938,
3.798,5.008294,
3.799,5.008952,
3.8,5.008623,
3.801,5.008294,
3.802,5.008623,
3.803,5.007965,
3.804,5.009938,
3.805,5.009609,
3.806,5.010267,
3.807,5.008952,
3.808,5.009281,
3.809,5.011253,
3.81,5.011582,
3.811,5.011253,
3.812,5.011582,
3.813,5.013555,
3.814,5.013884,
3.815,5.011911,
3.816,5.009938,
3.817,5.011582,
3.818,5.012569,
3.819,5.012897,
3.82,5.011911,
3.821,5.010925,
3.822,5.013226,
3.823,5.013555,
3.824,5.010596,
3.825,5.009281,
3.826,5.010596,
3.827,5.011253,
3.828,5.009609,
3.829,5.007965,
3.83,5.008952,
3.831,5.009938,
3.832,5.008294,
3.833,5.007308,
3.834,5.007308,
3.835,5.008952,
3.836,5.009938,
3.837,5.009281,
3.838,5.009281,
3.839,5.010596,
3.84,5.011253,
3.841,5.009609,
3.842,5.007965,
3.843,5.009281,
3.844,5.011911,
3.845,5.011253,
3.846,5.011253,
3.847,5.01224,
3.848,5.013884,
3.849,5.012897,
3.85,5.013555,
3.851,5.01224,
3.852,5.013226,
3.853,5.014541,
3.854,5.01487,
3.855,5.013884,
3.856,5.013555,
3.857,5.013884,
3.858,5.01487,
3.859,5.013226,
3.86,5.011582,
3.861,5.014541,
3.862,5.015199,
3.863,5.013555,
3.864,5.011911,
3.865,5.010596,
3.866,5.010596,
3.867,5.011253,
3.868,5.009281,
3.869,5.009281,
3.87,5.010596,
3.871,5.011253,
3.872,5.011582,
3.873,5.009281,
3.874,5.009281,
3.875,5.010925,
3.876,5.010596,
3.877,5.009938,
3.878,5.009938,
3.879,5.011911,
3.88,5.011911,
3.881,5.010596,
3.882,5.010267,
3.883,5.011253,
3.884,5.011911,
3.885,5.011911,
3.886,5.011582,
3.887,5.013884,
3.888,5.015199,
3.889,5.01487,
3.89,5.01224,
3.891,5.012569,
3.892,5.013884,
3.893,5.013555,
3.894,5.012569,
3.895,5.012897,
3.896,5.013884,
3.897,5.014541,
3.898,5.012569,
3.899,5.010267,
3.9,5.010925,
3.901,5.011911,
3.902,5.011582,
3.903,5.010267,
3.904,5.009609,
3.905,5.011911,
3.906,5.010925,
3.907,5.008294,
3.908,5.007637,
3.909,5.008952,
3.91,5.010267,
3.911,5.008952,
3.912,5.008952,
3.913,5.009938,
3.914,5.010267,
3.915,5.008623,
3.916,5.006979,
3.917,5.007965,
3.918,5.009281,
3.919,5.008952,
3.92,5.008623,
3.921,5.010267,
3.922,5.011253,
3.923,5.012569,
3.924,5.009609,
3.925,5.010596,
3.926,5.011911,
3.927,5.01224,
3.928,5.011911,
3.929,5.011253,
3.93,5.012897,
3.931,5.01487,
3.932,5.01224,
3.933,5.010267,
3.934,5.011253,
3.935,5.012897,
3.936,5.013884,
3.937,5.011911,
3.938,5.011911,
3.939,5.013226,
3.94,5.013884,
3.941,5.011911,
3.942,5.009281,
3.943,5.009938,
3.944,5.011253,
3.945,5.010267,
3.946,5.009609,
3.947,5.010267,
3.948,5.011253,
3.949,5.009609,
3.95,5.008623,
3.951,5.009938,
3.952,5.010596,
3.953,5.010596,
3.954,5.010925,
3.955,5.010925,
3.956,5.011253,
3.957,5.010596,
3.958,5.010267,
3.959,5.010267,
3.96,5.011582,
3.961,5.012897,
3.962,5.013555,
3.963,5.012897,
3.964,5.013884,
3.965,5.014213,
3.966,5.014541,
3.967,5.012897,
3.968,5.011911,
3.969,5.013884,
3.97,5.015199,
3.971,5.013884,
3.972,5.01224,
3.973,5.01224,
3.974,5.012897,
3.975,5.012897,
3.976,5.010925,
3.977,5.01224,
3.978,5.01224,
3.979,5.012897,
3.98,5.010925,
3.981,5.009281,
3.982,5.008952,
3.983,5.008952,
3.984,5.009609,
3.985,5.007637,
3.986,5.008623,
3.987,5.010267,
3.988,5.009938,
3.989,5.009609,
3.99,5.008623,
3.991,5.008294,
3.992,5.009938,
3.993,5.008952,
3.994,5.007965,
3.995,5.009938,
3.996,5.011253,
3.997,5.009938,
3.998,5.009938,
3.999,5.010267,
4,5.011582,
4.001,5.011911,
4.002,5.009938,
4.003,5.011582,
4.004,5.013226,
4.005,5.013226,
4.006,5.012569,
4.007,5.009938,
4.008,5.010596,
4.009,5.01224,
4.01,5.011582,
4.011,5.011253,
4.012,5.011911,
4.013,5.013555,
4.014,5.013884,
4.015,5.010267,
4.016,5.009609,
4.017,5.010267,
4.018,5.010267,
4.019,5.008623,
4.02,5.008294,
4.021,5.009609,
4.022,5.010267,
4.023,5.009938,
4.024,5.007637,
4.025,5.007637,
4.026,5.009281,
4.027,5.008623,
4.028,5.007965,
4.029,5.009281,
4.03,5.009938,
4.031,5.010925,
4.032,5.008623,
4.033,5.007637,
4.034,5.009281,
4.035,5.011253,
4.036,5.010596,
4.037,5.010267,
4.038,5.011253,
4.039,5.014213,
4.04,5.013226,
4.041,5.011253,
4.042,5.011582,
4.043,5.012897,
4.044,5.013884,
4.045,5.011911,
4.046,5.012569,
4.047,5.01487,
4.048,5.014213,
4.049,5.01224,
4.05,5.011253,
4.051,5.011911,
4.052,5.013555,
4.053,5.013555,
4.054,5.011911,
4.055,5.010596,
4.056,5.012897,
4.057,5.012569,
4.058,5.009281,
4.059,5.008294,
4.06,5.009281,
4.061,5.011582,
4.062,5.010925,
4.063,0.09613,
4.064,0.089554,
4.065,0.088897,
4.066,0.088568,
4.067,0.089226,
4.068,0.088568,
4.069,0.088897,
4.07,0.089226,
4.071,0.089226,
4.072,0.089883,
4.073,0.088568,
4.074,0.089226,
4.075,0.089226,
4.076,0.088568,
4.077,0.089226,
4.078,0.088568,
4.079,0.088897,
4.08,0.088897,
4.081,0.088239,
4.082,0.088568,
4.083,0.089554,
4.084,0.088897,
4.085,0.088897,
4.086,0.088897,
4.087,0.088568,
4.088,0.089883,
4.089,0.088897,
4.09,0.088897,
4.091,0.098103,
4.092,5.008952,
4.093,5.010267,
4.094,5.009281,
4.095,5.010596,
4.096,5.01224,
4.097,5.009938,
4.098,5.008294,
4.099,5.007637,
4.1,5.008294,
4.101,5.008952,
4.102,5.007637,
4.103,5.007965,
4.104,5.010267,
4.105,5.009938,
4.106,5.010267,
4.107,5.007965,
4.108,5.008623,
4.109,5.008952,
4.11,5.009281,
4.111,5.008623,
4.112,5.009609,
4.113,5.011911,
4.114,5.012897,
4.115,5.010596,
4.116,5.009938,
4.117,5.011582,
4.118,5.011911,
4.119,5.01224,
4.12,5.011253,
4.121,5.011911,
4.122,5.013226,
4.123,5.012569,
4.124,5.009938,
4.125,5.010267,
4.126,5.011253,
4.127,5.013884,
4.128,5.011582,
4.129,5.010267,
4.13,5.011911,
4.131,5.012569,
4.132,5.009609,
4.133,5.007965,
4.134,5.007308,
4.135,5.009609,
4.136,5.009938,
4.137,5.008294,
4.138,5.008294,
4.139,5.009938,
4.14,5.010596,
4.141,5.008623,
4.142,5.007965,
4.143,5.008294,
4.144,5.009609,
4.145,5.010925,
4.146,5.009938,
4.147,5.009609,
4.148,5.009281,
4.149,5.008952,
4.15,5.009938,
4.151,5.010267,
4.152,5.009938,
4.153,5.011582,
4.154,5.013226,
4.155,5.013555,
4.156,5.013555,
4.157,5.011582,
4.158,5.012569,
4.159,5.013226,
4.16,5.011911,
4.161,5.011253,
4.162,5.012897,
4.163,5.014541,
4.164,5.015199,
4.165,5.01224,
4.166,5.011911,
4.167,5.012569,
4.168,5.013555,
4.169,5.01224,
4.17,5.010925,
4.171,5.011582,
4.172,5.012569,
4.173,5.010925,
4.174,5.008952,
4.175,5.008294,
4.176,5.010267,
4.177,5.010596,
4.178,5.009281,
4.179,5.010267,
4.18,5.011253,
4.181,5.011253,
4.182,5.010267,
4.183,5.007965,
4.184,5.009281,
4.185,5.011253,
4.186,5.011253,
4.187,5.009938,
4.188,5.010925,
4.189,5.011582,
4.19,5.013555,
4.191,5.012569,
4.192,5.011582,
4.193,5.012897,
4.194,5.014541,
4.195,5.014541,
4.196,5.014213,
4.197,5.012897,
4.198,5.014541,
4.199,5.013226,
4.2,5.012569,
4.201,5.011582,
4.202,5.01224,
4.203,5.013555,
4.204,5.013884,
4.205,5.013226,
4.206,5.012569,
4.207,5.013226,
4.208,5.011911,
4.209,5.010596,
4.21,5.009609,
4.211,5.009938,
4.212,5.010596,
4.213,5.011253,
4.214,5.008952,
4.215,5.009609,
4.216,5.008952,
4.217,5.009938,
4.218,5.008952,
4.219,5.007965,
4.22,5.010596,
4.221,5.010925,
4.222,5.008952,
4.223,5.008952,
4.224,5.009609,
4.225,5.009609,
4.226,5.009938,
4.227,5.009938,
4.228,5.012569,
4.229,5.011911,
4.23,5.013226,
4.231,5.011582,
4.232,5.010925,
4.233,5.011582,
4.234,5.012569,
4.235,5.011911,
4.236,5.011582,
4.237,5.011911,
4.238,5.013555,
4.239,5.012897,
4.24,5.010267,
4.241,5.010267,
4.242,5.011582,
4.243,5.012569,
4.244,5.010267,
4.245,5.010267,
4.246,5.011253,
4.247,5.011582,
4.248,5.010596,
4.249,5.007965,
4.25,5.006979,
4.251,5.008623,
4.252,5.009609,
4.253,5.007965,
4.254,5.007965,
4.255,5.008952,
4.256,5.010267,
4.257,5.008623,
4.258,5.007308,
4.259,5.007965,
4.26,5.008952,
4.261,5.009281,
4.262,5.007965,
4.263,5.008952,
4.264,5.010596,
4.265,5.011253,
4.266,5.008952,
4.267,5.009938,
4.268,5.011253,
4.269,5.012897,
4.27,5.012897,
4.271,5.011253,
4.272,5.01224,
4.273,5.013226,
4.274,5.01224,
4.275,5.011911,
4.276,5.010925,
4.277,5.013555,
4.278,5.013555,
4.279,5.011582,
4.28,5.011253,
4.281,5.013226,
4.282,5.013226,
4.283,5.011253,
4.284,5.009609,
4.285,5.009938,
4.286,5.011911,
4.287,5.011253,
4.288,5.010596,
4.289,5.010596,
4.29,5.009938,
4.291,5.010267,
4.292,5.011253,
4.293,5.008623,
4.294,5.008952,
4.295,5.011911,
4.296,5.011911,
4.297,5.010267,
4.298,5.009938,
4.299,5.009609,
4.3,5.009938,
4.301,5.011253,
4.302,5.009938,
4.303,5.010267,
4.304,5.012569,
4.305,5.013884,
4.306,5.013884,
4.307,5.011911,
4.308,5.01224,
4.309,5.013884,
4.31,5.014213,
4.311,5.013226,
4.312,5.012897,
4.313,5.01487,
4.314,5.014541,
4.315,5.012897,
4.316,5.01224,
4.317,5.013226,
4.318,5.014213,
4.319,5.013226,
4.32,5.012569,
4.321,5.012897,
4.322,5.013555,
4.323,5.012569,
4.324,5.009609,
4.325,5.008623,
4.326,5.009609,
4.327,5.011582,
4.328,5.010925,
4.329,5.009938,
4.33,5.009609,
4.331,5.011253,
4.332,5.011253,
4.333,5.008623,
4.334,5.008294,
4.335,5.010267,
4.336,5.010596,
4.337,5.010925,
4.338,5.009938,
4.339,5.009281,
4.34,5.010925,
4.341,5.010267,
4.342,5.009609,
4.343,5.010267,
4.344,5.012569,
4.345,5.013226,
4.346,5.014213,
4.347,5.01224,
4.348,5.01224,
4.349,5.01224,
4.35,5.01224,
4.351,5.011253,
4.352,5.010925,
4.353,5.01224,
4.354,5.013226,
4.355,5.012569,
4.356,5.012569,
4.357,5.011253,
4.358,5.011582,
4.359,5.011253,
4.36,5.009938,
4.361,5.009609,
4.362,5.010596,
4.363,5.010596,
4.364,5.009938,
4.365,5.008294,
4.366,5.006979,
4.367,5.008952,
4.368,5.008294,
4.369,5.008294,
4.37,5.007637,
4.371,5.009609,
4.372,5.009281,
4.373,5.008952,
4.374,5.006321,
4.375,5.007637,
4.376,5.010267,
4.377,5.008952,
4.378,5.008623,
4.379,5.009609,
4.38,5.011253,
4.381,5.01224,
4.382,5.010596,
4.383,5.008623,
4.384,5.011253,
4.385,5.012569,
4.386,5.011911,
4.387,5.01224,
4.388,5.012897,
4.389,5.014213,
4.39,5.013555,
4.391,5.010925,
4.392,5.011253,
4.393,5.011911,
4.394,5.013884,
4.395,5.011911,
4.396,5.01224,
4.397,5.013226,
4.398,5.012569,
4.399,5.010596,
4.4,5.010267,
4.401,5.009281,
4.402,5.010925,
4.403,5.010596,
4.404,5.009609,
4.405,5.009938,
4.406,5.011911,
4.407,5.010267,
4.408,5.008294,
4.409,5.008623,
4.41,5.010925,
4.411,5.011253,
4.412,5.009281,
4.413,5.010267,
4.414,5.011911,
4.415,5.011911,
4.416,5.008952,
4.417,5.008952,
4.418,5.011582,
4.419,5.012897,
4.42,5.013226,
4.421,5.012897,
4.422,5.012897,
4.423,5.015199,
4.424,5.013555,
4.425,5.012897,
4.426,5.01224,
4.427,5.013884,
4.428,5.014541,
4.429,5.013226,
4.43,5.013555,
4.431,5.013555,
4.432,5.013226,
4.433,5.012569,
4.434,5.011582,
4.435,5.010925,
4.436,5.012569,
4.437,5.012569,
4.438,5.010925,
4.439,5.009609,
4.44,5.009938,
4.441,5.010267,
4.442,5.009281,
4.443,5.008294,
4.444,5.009938,
4.445,5.010596,
4.446,5.010596,
4.447,5.008623,
4.448,5.009281,
4.449,5.009281,
4.45,5.009281,
4.451,5.007965,
4.452,5.007637,
4.453,5.009281,
4.454,5.011253,
4.455,5.009938,
4.456,5.009938,
4.457,5.009281,
4.458,5.010596,
4.459,5.011582,
4.46,5.010925,
4.461,5.010925,
4.462,5.012569,
4.463,5.013555,
4.464,5.013226,
4.465,5.009938,
4.466,5.010596,
4.467,5.011582,
4.468,5.011911,
4.469,5.011253,
4.47,5.011253,
4.471,5.012897,
4.472,5.014541,
4.473,5.013226,
4.474,5.009938,
4.475,5.010267,
4.476,5.010267,
4.477,5.010267,
4.478,5.008952,
4.479,5.009938,
4.48,5.010267,
4.481,5.010596,
4.482,5.008294,
4.483,5.007308,
4.484,5.007965,
4.485,5.009938,
4.486,5.008952,
4.487,5.008952,
4.488,5.009281,
4.489,5.010596,
4.49,5.011582,
4.491,5.008623,
4.492,5.007965,
4.493,5.010596,
4.494,5.011582,
4.495,5.010925,
4.496,5.011253,
4.497,5.013555,
4.498,5.014213,
4.499,5.01224,
4.5,5.011911,
4.501,5.013226,
4.502,5.014213,
4.503,5.013884,
4.504,5.013226,
4.505,5.013226,
4.506,5.01487,
4.507,5.013884,
4.508,5.012569,
4.509,5.01224,
4.51,5.013226,
4.511,5.013226,
4.512,5.013226,
4.513,5.011582,
4.514,5.011253,
4.515,5.012569,
4.516,5.010596,
4.517,5.008623,
4.518,5.008623,
4.519,5.009938,
4.52,5.010925,
4.521,5.010267,
4.522,5.009281,
4.523,5.008623,
4.524,5.009609,
4.525,5.009281,
4.526,5.007637,
4.527,5.009281,
4.528,5.009938,
4.529,5.010925,
4.53,5.008952,
4.531,5.009281,
4.532,5.010925,
4.533,5.010267,
4.534,5.010267,
4.535,5.009938,
4.536,5.010925,
4.537,5.013226,
4.538,5.013226,
4.539,5.01224,
4.54,5.011582,
4.541,5.011582,
4.542,5.012569,
4.543,5.010267,
4.544,5.010925,
4.545,5.013226,
4.546,5.013555,
4.547,5.013226,
4.548,5.010925,
4.549,5.009938,
4.55,5.011582,
4.551,5.011253,
4.552,5.009938,
4.553,5.008623,
4.554,5.009609,
4.555,5.010596,
4.556,5.009938,
4.557,5.007308,
4.558,5.00665,
4.559,5.007965,
4.56,5.009938,
4.561,5.008294,
4.562,5.008294,
4.563,5.009938,
4.564,5.011582,
4.565,5.010267,
4.566,5.007308,
4.567,5.008294,
4.568,5.010267,
4.569,5.010925,
4.57,5.009609,
4.571,5.010925,
4.572,5.011911,
4.573,5.014541,
4.574,5.013226,
4.575,5.011911,
4.576,5.012569,
4.577,5.013555,
4.578,5.014541,
4.579,5.013555,
4.58,5.012897,
4.581,5.01487,
4.582,5.013884,
4.583,5.01224,
4.584,5.011253,
4.585,5.01224,
4.586,5.013555,
4.587,5.014213,
4.588,5.01224,
4.589,5.011582,
4.59,5.011582,
4.591,5.011911,
4.592,5.009281,
4.593,5.008623,
4.594,5.010596,
4.595,5.011911,
4.596,5.010925,
4.597,5.008623,
4.598,5.008952,
4.599,5.009281,
4.6,5.009938,
4.601,5.008623,
4.602,5.007637,
4.603,5.009609,
4.604,5.010925,
4.605,5.009938,
4.606,5.009281,
4.607,5.009281,
4.608,5.009938,
4.609,5.010925,
4.61,5.010596,
4.611,5.011253,
4.612,5.013226,
4.613,5.01224,
4.614,5.01224,
4.615,5.011253,
4.616,5.011911,
4.617,5.013226,
4.618,5.010925,
4.619,5.011582,
4.62,5.012569,
4.621,5.011911,
4.622,5.012897,
4.623,5.010925,
4.624,5.009938,
4.625,5.011911,
4.626,5.010596,
4.627,5.009938,
4.628,5.010267,
4.629,5.010925,
4.63,5.010925,
4.631,5.009609,
4.632,5.00665,
4.633,5.007308,
4.634,5.008294,
4.635,5.008294,
4.636,5.006979,
4.637,5.007308,
4.638,5.009938,
4.639,5.009938,
4.64,5.009281,
4.641,5.007308,
4.642,5.007965,
4.643,5.009609,
4.644,5.008623,
4.645,5.009281,
4.646,5.009938,
4.647,5.010925,
4.648,5.012569,
4.649,5.009938,
4.65,5.009938,
4.651,5.011911,
4.652,5.01224,
4.653,5.013226,
4.654,5.011911,
4.655,5.01224,
4.656,5.014213,
4.657,5.013555,
4.658,5.011582,
4.659,5.011253,
4.66,5.012569,
4.661,5.013555,
4.662,5.013226,
4.663,5.011911,
4.664,5.013555,
4.665,5.013555,
4.666,5.010925,
4.667,5.009609,
4.668,5.009281,
4.669,5.010267,
4.67,5.010596,
4.671,5.010267,
4.672,5.009609,
4.673,5.010267,
4.674,5.010267,
4.675,5.010267,
4.676,5.008623,
4.677,5.009609,
4.678,5.010596,
4.679,5.01224,
4.68,5.011253,
4.681,5.010267,
4.682,5.009938,
4.683,5.010925,
4.684,5.011911,
4.685,5.010267,
4.686,5.010596,
4.687,5.012897,
4.688,5.01487,
4.689,5.014213,
4.69,5.012897,
4.691,5.010925,
4.692,5.013555,
4.693,5.013884,
4.694,5.013226,
4.695,5.013226,
4.696,5.01487,
4.697,5.01487,
4.698,5.014213,
4.699,5.01224,
4.7,5.012569,
4.701,5.013555,
4.702,5.01224,
4.703,5.011582,
4.704,5.011253,
4.705,5.012569,
4.706,5.01224,
4.707,5.009938,
4.708,5.008294,
4.709,5.009281,
4.71,5.010596,
4.711,5.009609,
4.712,5.009281,
4.713,5.009609,
4.714,5.010267,
4.715,5.010267,
4.716,5.007308,
4.717,5.007308,
4.718,5.009609,
4.719,5.010267,
4.72,5.009281,
4.721,5.008623,
4.722,5.009609,
4.723,5.011253,
4.724,5.010267,
4.725,5.009938,
4.726,5.010925,
4.727,5.01224,
4.728,5.013226,
4.729,5.011582,
4.73,5.01224,
4.731,5.013884,
4.732,5.012569,
4.733,5.010596,
4.734,5.010596,
4.735,5.010925,
4.736,5.012897,
4.737,5.013226,
4.738,5.011253,
4.739,5.011911,
4.74,5.012897,
4.741,5.010596,
4.742,5.010267,
4.743,5.008952,
4.744,5.010596,
4.745,5.010267,
4.746,5.008952,
4.747,5.009938,
4.748,5.010596,
4.749,5.009281,
4.75,5.009281,
4.751,5.007637,
4.752,5.008952,
4.753,5.009938,
4.754,5.010267,
4.755,5.009609,
4.756,5.009609,
4.757,5.010596,
4.758,5.010267,
4.759,5.007965,
4.76,5.008952,
4.761,5.011253,
4.762,5.01224,
4.763,5.011582,
4.764,5.011911,
4.765,5.012569,
4.766,5.01224,
4.767,5.012569,
4.768,5.010596,
4.769,5.011253,
4.77,5.014541,
4.771,5.014213,
4.772,5.013884,
4.773,5.013226,
4.774,5.012569,
4.775,5.013226,
4.776,5.012569,
4.777,5.012569,
4.778,5.013226,
4.779,5.012897,
4.78,5.013226,
4.781,5.011253,
4.782,5.010596,
4.783,5.010925,
4.784,5.010596,
4.785,5.009609,
4.786,5.009281,
4.787,5.011253,
4.788,5.011582,
4.789,5.010267,
4.79,5.009281,
4.791,5.009281,
4.792,5.011582,
4.793,5.010267,
4.794,5.009281,
4.795,5.010925,
4.796,5.01224,
4.797,5.011582,
4.798,5.011253,
4.799,5.009281,
4.8,5.010925,
4.801,5.012897,
4.802,5.01224,
4.803,5.011911,
4.804,5.013884,
4.805,5.014541,
4.806,5.014213,
4.807,5.01224,
4.808,5.012569,
4.809,5.014213,
4.81,5.013226,
4.811,5.013226,
4.812,5.012897,
4.813,5.015528,
4.814,5.014541,
4.815,5.013226,
4.816,5.011911,
4.817,5.013226,
4.818,5.013226,
4.819,5.011911,
4.82,5.010596,
4.821,5.011253,
4.822,5.011253,
4.823,5.010925,
4.824,5.008952,
4.825,5.008623,
4.826,5.010267,
4.827,5.011253,
4.828,5.009609,
4.829,5.009609,
4.83,5.010925,
4.831,5.010925,
4.832,5.009609,
4.833,5.007965,
4.834,5.007637,
4.835,5.009938,
4.836,5.009281,
4.837,5.008952,
4.838,5.009281,
4.839,5.011911,
4.84,5.013555,
4.841,5.009609,
4.842,5.010267,
4.843,5.011582,
4.844,5.012569,
4.845,5.012569,
4.846,5.01224,
4.847,5.012897,
4.848,5.013555,
4.849,5.011582,
4.85,5.011253,
4.851,5.010596,
4.852,5.011582,
4.853,5.01224,
4.854,5.01224,
4.855,5.010925,
4.856,5.011911,
4.857,5.011582,
4.858,5.009281,
4.859,5.007637,
4.86,5.009281,
4.861,5.009609,
4.862,5.007965,
4.863,5.008294,
4.864,5.007965,
4.865,5.010596,
4.866,5.008294,
4.867,5.006979,
4.868,5.007308,
4.869,5.008952,
4.87,5.010267,
4.871,5.009281,
4.872,5.008952,
4.873,5.011253,
4.874,5.010925,
4.875,5.010596,
4.876,5.009938,
4.877,5.010925,
4.878,5.013226,
4.879,5.013884,
4.88,5.01224,
4.881,5.013884,
4.882,5.013884,
4.883,5.013884,
4.884,5.012569,
4.885,5.012569,
4.886,5.013884,
4.887,5.01487,
4.888,5.014541,
4.889,5.013884,
4.89,5.013884,
4.891,5.013555,
4.892,5.013884,
4.893,5.011253,
4.894,5.012569,
4.895,5.013555,
4.896,5.012897,
4.897,5.011253,
4.898,5.010267,
4.899,5.010925,
4.9,5.010267,
4.901,5.008952,
4.902,5.008623,
4.903,5.009938,
4.904,5.011582,
4.905,5.011253,
4.906,5.009609,
4.907,5.009609,
4.908,5.010596,
4.909,5.011253,
4.91,5.008623,
4.911,5.010267,
4.912,5.011582,
4.913,5.011911,
4.914,5.012897,
4.915,5.011253,
4.916,5.011253,
4.917,5.013226,
4.918,5.01224,
4.919,5.012569,
4.92,5.012897,
4.921,5.014541,
4.922,5.01487,
4.923,5.012569,
4.924,5.011582,
4.925,5.012897,
4.926,5.012897,
4.927,5.01224,
4.928,5.011911,
4.929,5.013226,
4.93,5.014541,
4.931,5.01224,
4.932,5.010925,
4.933,5.010267,
4.934,5.009938,
4.935,5.011253,
4.936,5.008952,
4.937,5.008623,
4.938,5.010596,
4.939,5.009938,
4.94,5.008294,
4.941,5.006321,
4.942,5.007308,
4.943,5.009281,
4.944,5.007965,
4.945,5.007965,
4.946,5.008952,
4.947,5.010596,
4.948,5.011253,
4.949,5.00665,
4.95,5.006979,
4.951,5.008952,
4.952,5.010267,
4.953,5.009281,
4.954,5.009609,
4.955,5.011911,
4.956,5.013555,
4.957,5.01224,
4.958,5.010267,
4.959,5.010925,
4.96,5.012897,
4.961,5.012569,
4.962,5.011582,
4.963,5.011582,
4.964,5.012569,
4.965,5.012569,
4.966,5.010267,
4.967,5.010267,
4.968,5.011911,
4.969,5.012897,
4.97,5.012569,
4.971,5.010267,
4.972,5.011253,
4.973,5.01224,
4.974,5.010267,
4.975,5.008294,
4.976,5.008294,
4.977,5.009938,
4.978,5.010925,
4.979,5.009938,
4.98,5.008623,
4.981,5.011582,
4.982,5.010596,
4.983,5.008952,
4.984,5.008623,
4.985,5.009281,
4.986,5.011582,
4.987,5.010596,
4.988,5.008623,
4.989,5.010925,
4.99,5.011582,
4.991,5.011253,
4.992,5.011582,
4.993,5.011582,
4.994,5.013226,
4.995,5.014541,
4.996,5.013555,
4.997,5.013226,
4.998,5.014213,
4.999,5.013884,
5,5.012897,
5.001,5.011911,
5.002,5.012897,
5.003,5.013555,
5.004,5.014541,
5.005,5.013226,
5.006,5.013226,
5.007,5.013884,
5.008,5.013226,
5.009,5.011582,
5.01,5.010596,
5.011,5.010925,
5.012,5.01224,
5.013,5.010596,
5.014,5.008952,
5.015,5.009281,
5.016,5.009938,
5.017,5.009609,
5.018,5.008294,
5.019,5.008294,
5.02,5.008952,
5.021,5.011253,
5.022,5.010925,
5.023,5.008952,
5.024,5.008623,
5.025,5.009281,
5.026,5.009281,
5.027,5.008294,
5.028,5.009609,
5.029,5.010925,
5.03,5.012897,
5.031,5.011582,
5.032,5.010925,
5.033,5.009938,
5.034,5.012569,
5.035,5.013226,
5.036,5.011582,
5.037,5.011582,
5.038,5.012897,
5.039,5.013884,
5.04,5.01224,
5.041,5.010596,
5.042,5.010267,
5.043,5.01224,
5.044,5.011582,
5.045,5.010267,
5.046,5.012569,
5.047,5.012569,
5.048,5.011253,
5.049,5.008294,
5.05,5.007637,
5.051,5.008623,
5.052,5.009938,
5.053,5.008952,
5.054,5.008294,
5.055,5.009281,
5.056,5.009938,
5.057,5.008952,
5.058,5.007308,
5.059,5.006979,
5.06,5.009609,
5.061,5.009281,
5.062,5.008294,
5.063,5.008623,
5.064,5.009938,
5.065,5.010267,
5.066,5.007965,
5.067,5.008952,
5.068,5.009609,
5.069,5.011911,
5.07,5.01224,
5.071,5.011911,
5.072,5.011253,
5.073,5.012897,
5.074,5.012569,
5.075,5.011911,
5.076,5.010596,
5.077,5.011253,
5.078,5.013226,
5.079,5.012897,
5.08,5.01224,
5.081,5.011911,
5.082,5.012569,
5.083,5.012897,
5.084,5.010596,
5.085,5.009938,
5.086,5.009938,
5.087,5.010925,
5.088,5.010925,
5.089,5.009281,
5.09,5.010267,
5.091,5.009609,
5.092,5.008294,
5.093,5.008623,
5.094,5.008294,
5.095,5.009609,
5.096,5.009938,
5.097,5.010267,
5.098,5.009938,
5.099,5.008952,
5.1,5.009938,
5.101,5.009281,
5.102,5.008294,
5.103,5.010267,
5.104,5.011253,
5.105,5.011582,
5.106,5.011911,
5.107,5.010596,
5.108,5.012569,
5.109,5.013884,
5.11,5.012569,
5.111,5.012569,
5.112,5.013226,
5.113,5.014541,
5.114,5.01487,
5.115,5.013555,
5.116,5.01224,
5.117,5.01224,
5.118,5.013884,
5.119,5.012897,
5.12,5.012569,
5.121,5.013555,
5.122,5.014541,
5.123,5.012569,
5.124,5.011582,
5.125,5.011253,
5.126,5.011911,
5.127,5.011253,
5.128,5.010267,
5.129,5.010267,
5.13,5.011253,
5.131,5.011911,
5.132,5.009281,
5.133,5.007965,
5.134,5.009938,
5.135,5.010596,
5.136,5.010925,
5.137,5.009609,
5.138,5.009938,
5.139,5.011253,
5.14,5.011911,
5.141,5.009281,
5.142,5.009281,
5.143,5.010925,
5.144,5.01224,
5.145,5.01224,
5.146,5.010925,
5.147,5.012897,
5.148,5.014541,
5.149,5.013555,
5.15,5.011253,
5.151,5.011911,
5.152,5.013226,
5.153,5.013555,
5.154,5.01224,
5.155,5.012897,
5.156,5.01224,
5.157,5.012897,
5.158,5.011911,
5.159,5.010596,
5.16,5.011911,
5.161,5.012569,
5.162,5.011911,
5.163,5.010267,
5.164,5.008623,
5.165,5.010267,
5.166,5.008952,
5.167,5.007965,
5.168,5.006979,
5.169,5.008623,
5.17,5.008952,
5.171,5.008623,
5.172,5.007637,
5.173,5.007965,
5.174,5.008952,
5.175,5.008952,
5.176,5.007308,
5.177,5.00665,
5.178,5.009938,
5.179,5.009938,
5.18,5.008294,
5.181,5.009938,
5.182,5.009609,
5.183,5.010596,
5.184,5.010596,
5.185,5.009938,
5.186,5.010596,
5.187,5.01224,
5.188,5.013884,
5.189,5.014213,
5.19,5.011582,
5.191,5.011911,
5.192,5.012897,
5.193,5.010925,
5.194,5.011253,
5.195,5.01224,
5.196,5.013226,
5.197,5.013226,
5.198,5.012897,
5.199,5.010596,
5.2,5.011253,
5.201,5.010596,
5.202,5.009281,
5.203,5.008952,
5.204,5.010267,
5.205,5.010596,
5.206,5.011582,
5.207,5.008952,
5.208,5.008294,
5.209,5.009938,
5.21,5.009938,
5.211,5.007637,
5.212,5.007965,
5.213,5.010925,
5.214,5.011253,
5.215,5.009609,
5.216,5.007965,
5.217,5.009938,
5.218,5.010925,
5.219,5.010596,
5.22,5.009938,
5.221,5.011911,
5.222,5.013884,
5.223,5.013226,
5.224,5.011582,
5.225,5.011911,
5.226,5.013226,
5.227,5.014213,
5.228,5.012897,
5.229,5.011911,
5.23,5.013555,
5.231,5.015528,
5.232,5.012569,
5.233,5.011911,
5.234,5.01224,
5.235,5.013884,
5.236,5.013226,
5.237,5.012897,
5.238,5.012897,
5.239,5.012569,
5.24,5.012897,
5.241,5.008952,
5.242,5.009609,
5.243,5.011253,
5.244,5.010267,
5.245,5.009938,
5.246,5.009281,
5.247,5.010596,
5.248,5.011911,
5.249,5.008623,
5.25,5.008294,
5.251,5.009281,
5.252,5.010925,
5.253,5.010925,
5.254,5.009281,
5.255,5.009609,
5.256,5.011582,
5.257,5.011911,
5.258,5.010267,
5.259,5.010925,
5.26,5.011911,
5.261,5.014213,
5.262,5.013555,
5.263,5.01224,
5.264,5.012569,
5.265,5.014213,
5.266,5.012897,
5.267,5.01224,
5.268,5.010596,
5.269,5.013226,
5.27,5.013555,
5.271,5.01224,
5.272,5.012569,
5.273,5.01224,
5.274,5.012897,
5.275,5.01224,
5.276,5.010925,
5.277,5.010925,
5.278,5.011582,
5.279,5.011253,
5.28,5.009281,
5.281,5.009281,
5.282,5.007637,
5.283,5.007965,
5.284,5.008294,
5.285,5.006321,
5.286,5.007965,
5.287,5.009609,
5.288,5.008294,
5.289,5.009281,
5.29,5.008623,
5.291,5.008623,
5.292,5.009281,
5.293,5.007308,
5.294,5.007308,
5.295,5.009938,
5.296,5.010596,
5.297,5.010925,
5.298,5.009609,
5.299,5.009938,
5.3,5.011253,
5.301,5.011253,
5.302,5.010925,
5.303,5.011253,
5.304,5.012569,
5.305,5.013555,
5.306,5.012897,
5.307,5.010925,
5.308,5.010267,
5.309,5.011911,
5.31,5.011911,
5.311,5.010596,
5.312,5.011253,
5.313,5.012897,
5.314,5.01224,
5.315,5.010596,
5.316,5.008952,
5.317,5.009938,
5.318,5.009281,
5.319,5.008623,
5.32,5.007965,
5.321,5.008623,
5.322,5.009609,
5.323,5.010267,
5.324,5.007308,
5.325,5.007308,
5.326,5.009938,
5.327,4.811018,
5.328,0.092842,
5.329,0.089226,
5.33,0.088897,
5.331,0.088897,
5.332,0.088568,
5.333,0.088568,
5.334,0.088568,
5.335,0.089226,
5.336,0.089226,
5.337,0.088897,
5.338,0.088897,
5.339,0.088897,
5.34,0.088897,
5.341,0.088568,
5.342,0.088897,
5.343,0.088897,
5.344,0.089226,
5.345,0.088897,
5.346,0.088568,
5.347,0.089226,
5.348,0.088568,
5.349,0.088897,
5.35,0.088897,
5.351,0.088897,
5.352,0.088568,
5.353,0.088568,
5.354,0.088568,
5.355,0.088568,
5.356,0.094815,
5.357,5.010596,
5.358,5.008623,
5.359,5.008294,
5.36,5.009609,
5.361,5.011582,
5.362,5.010267,
5.363,5.009281,
5.364,5.009938,
5.365,5.011911,
5.366,5.009609,
5.367,5.008952,
5.368,5.008952,
5.369,5.010925,
5.37,5.011582,
5.371,5.010267,
5.372,5.010596,
5.373,5.010925,
5.374,5.01224,
5.375,5.011911,
5.376,5.011253,
5.377,5.01224,
5.378,5.013884,
5.379,5.014213,
5.38,5.012569,
5.381,5.012569,
5.382,5.013226,
5.383,5.013226,
5.384,5.012569,
5.385,5.011911,
5.386,5.01224,
5.387,5.014213,
5.388,5.012897,
5.389,5.013226,
5.39,5.011911,
5.391,5.011253,
5.392,5.011253,
5.393,5.010267,
5.394,5.009609,
5.395,5.010596,
5.396,5.010596,
5.397,5.009281,
5.398,5.008952,
5.399,5.007965,
5.4,5.009281,
5.401,5.008623,
5.402,5.007308,
5.403,5.007308,
5.404,5.008952,
5.405,5.010596,
5.406,5.009938,
5.407,5.007637,
5.408,5.007965,
5.409,5.008952,
5.41,5.010267,
5.411,5.009281,
5.412,5.009609,
5.413,5.013226,
5.414,5.013226,
5.415,5.011582,
5.416,5.009938,
5.417,5.011253,
5.418,5.012569,
5.419,5.011911,
5.42,5.011253,
5.421,5.011253,
5.422,5.012897,
5.423,5.014213,
5.424,5.010925,
5.425,5.009609,
5.426,5.010925,
5.427,5.012897,
5.428,5.011582,
5.429,5.010596,
5.43,5.011253,
5.431,5.011253,
5.432,5.009938,
5.433,5.007965,
5.434,5.006979,
5.435,5.008294,
5.436,5.009609,
5.437,5.007308,
5.438,5.007965,
5.439,5.008952,
5.44,5.010596,
5.441,5.008623,
5.442,5.006321,
5.443,5.008294,
5.444,5.008952,
5.445,5.008952,
5.446,5.007965,
5.447,5.009281,
5.448,5.010925,
5.449,5.009281,
5.45,5.007965,
5.451,5.009938,
5.452,5.011582,
5.453,5.012897,
5.454,5.012569,
5.455,5.011582,
5.456,5.012569,
5.457,5.013555,
5.458,5.011911,
5.459,5.011582,
5.46,5.011582,
5.461,5.012569,
5.462,5.013555,
5.463,5.01224,
5.464,5.01224,
5.465,5.012569,
5.466,5.011911,
5.467,5.01224,
5.468,5.010267,
5.469,5.010267,
5.47,5.010267,
5.471,5.010925,
5.472,5.010267,
5.473,5.009938,
5.474,5.009281,
5.475,5.009609,
5.476,5.008952,
5.477,5.009281,
5.478,5.009281,
5.479,5.010596,
5.48,5.010925,
5.481,5.010267,
5.482,5.009938,
5.483,5.009281,
5.484,5.010267,
5.485,5.010267,
5.486,5.009938,
5.487,5.010925,
5.488,5.012897,
5.489,5.014213,
5.49,5.013884,
5.491,5.011582,
5.492,5.012897,
5.493,5.014213,
5.494,5.013884,
5.495,5.013226,
5.496,5.013226,
5.497,5.014541,
5.498,5.015528,
5.499,5.011911,
5.5,5.011911,
5.501,5.011253,
5.502,5.013555,
5.503,5.013884,
5.504,5.01224,
5.505,5.011582,
5.506,5.011253,
5.507,5.011911,
5.508,5.009938,
5.509,5.008623,
5.51,5.008952,
5.511,5.010596,
5.512,5.009609,
5.513,5.009281,
5.514,5.007965,
5.515,5.009281,
5.516,5.009281,
5.517,5.007308,
5.518,5.007637,
5.519,5.009281,
5.52,5.008623,
5.521,5.008952,
5.522,5.007965,
5.523,5.008623,
5.524,5.010267,
5.525,5.009281,
5.526,5.008952,
5.527,5.009938,
5.528,5.011911,
5.529,5.012569,
5.53,5.010925,
5.531,5.011911,
5.532,5.012897,
5.533,5.011911,
5.534,5.011582,
5.535,5.010596,
5.536,5.011253,
5.537,5.012569,
5.538,5.01224,
5.539,5.012897,
5.54,5.011911,
5.541,5.011582,
5.542,5.012897,
5.543,5.010925,
5.544,5.010267,
5.545,5.011253,
5.546,5.011253,
5.547,5.010925,
5.548,5.009938,
5.549,5.007965,
5.55,5.009281,
5.551,5.010267,
5.552,5.008952,
5.553,5.008294,
5.554,5.009609,
5.555,5.011253,
5.556,5.011582,
5.557,5.008952,
5.558,5.007965,
5.559,5.008294,
5.56,5.010596,
5.561,5.009609,
5.562,5.008952,
5.563,5.010925,
5.564,5.012569,
5.565,5.01224,
5.566,5.009938,
5.567,5.011253,
5.568,5.012897,
5.569,5.013226,
5.57,5.01224,
5.571,5.013226,
5.572,5.014213,
5.573,5.015528,
5.574,5.012569,
5.575,5.011911,
5.576,5.012897,
5.577,5.013555,
5.578,5.013555,
5.579,5.012897,
5.58,5.013884,
5.581,5.015199,
5.582,5.013555,
5.583,5.010925,
5.584,5.010267,
5.585,5.011582,
5.586,5.011253,
5.587,5.009281,
5.588,5.010267,
5.589,5.010596,
5.59,5.011253,
5.591,5.009281,
5.592,5.008294,
5.593,5.008294,
5.594,5.010925,
5.595,5.010596,
5.596,5.009938,
5.597,5.010267,
5.598,5.011253,
5.599,5.010925,
5.6,5.009609,
5.601,5.009281,
5.602,5.011911,
5.603,5.013555,
5.604,5.012897,
5.605,5.012897,
5.606,5.012897,
5.607,5.013555,
5.608,5.013226,
5.609,5.012569,
5.61,5.01224,
5.611,5.013555,
5.612,5.014213,
5.613,5.013226,
5.614,5.013226,
5.615,5.012569,
5.616,5.012569,
5.617,5.012897,
5.618,5.012569,
5.619,5.011582,
5.62,5.012897,
5.621,5.012569,
5.622,5.011253,
5.623,5.008623,
5.624,5.008952,
5.625,5.009609,
5.626,5.008623,
5.627,5.008294,
5.628,5.008294,
5.629,5.009938,
5.63,5.010925,
5.631,5.008623,
5.632,5.007637,
5.633,5.008294,
5.634,5.008952,
5.635,5.008294,
5.636,5.006979,
5.637,5.007965,
5.638,5.011253,
5.639,5.011253,
5.64,5.009938,
5.641,5.007965,
5.642,5.011253,
5.643,5.011911,
5.644,5.010925,
5.645,5.011253,
5.646,5.012569,
5.647,5.013555,
5.648,5.013226,
5.649,5.010267,
5.65,5.010596,
5.651,5.01224,
5.652,5.011911,
5.653,5.010925,
5.654,5.010925,
5.655,5.012897,
5.656,5.013555,
5.657,5.011253,
5.658,5.009609,
5.659,5.009938,
5.66,5.010596,
5.661,5.009609,
5.662,5.007965,
5.663,5.009281,
5.664,5.010267,
5.665,5.009609,
5.666,5.006979,
5.667,5.007308,
5.668,5.008623,
5.669,5.008952,
5.67,5.008294,
5.671,5.008294,
5.672,5.009609,
5.673,5.010925,
5.674,5.008294,
5.675,5.006979,
5.676,5.008623,
5.677,5.010267,
5.678,5.009938,
5.679,5.010596,
5.68,5.011582,
5.681,5.013555,
5.682,5.013226,
5.683,5.011253,
5.684,5.011911,
5.685,5.01224,
5.686,5.013226,
5.687,5.013226,
5.688,5.011582,
5.689,5.011911,
5.69,5.013555,
5.691,5.01224,
5.692,5.011253,
5.693,5.011253,
5.694,5.013226,
5.695,5.012569,
5.696,5.011582,
5.697,5.010596,
5.698,5.011582,
5.699,5.010596,
5.7,5.009281,
5.701,5.007965,
5.702,5.008623,
5.703,5.010267,
5.704,5.010267,
5.705,5.008623,
5.706,5.010267,
5.707,5.009938,
5.708,5.008952,
5.709,5.009609,
5.71,5.007965,
5.711,5.008952,
5.712,5.011253,
5.713,5.011253,
5.714,5.010596,
5.715,5.010596,
5.716,5.009938,
5.717,5.011911,
5.718,5.011253,
5.719,5.01224,
5.72,5.013226,
5.721,5.015528,
5.722,5.015528,
5.723,5.014541,
5.724,5.01224,
5.725,5.013884,
5.726,5.013884,
5.727,5.012569,
5.728,5.013226,
5.729,5.013884,
5.73,5.015199,
5.731,5.014213,
5.732,5.012897,
5.733,5.012569,
5.734,5.012569,
5.735,5.012569,
5.736,5.010596,
5.737,5.010596,
5.738,5.010925,
5.739,5.011253,
5.74,5.009938,
5.741,5.007637,
5.742,5.007637,
5.743,5.010596,
5.744,5.009609,
5.745,5.007637,
5.746,5.008952,
5.747,5.01224,
5.748,5.010267,
5.749,5.007308,
5.75,5.00665,
5.751,5.008952,
5.752,5.009938,
5.753,5.008623,
5.754,5.008952,
5.755,5.009938,
5.756,5.012569,
5.757,5.011911,
5.758,5.010267,
5.759,5.010925,
5.76,5.012897,
5.761,5.012897,
5.762,5.011582,
5.763,5.011582,
5.764,5.013226,
5.765,5.012569,
5.766,5.009938,
5.767,5.010267,
5.768,5.01224,
5.769,5.012897,
5.77,5.011253,
5.771,5.011253,
5.772,5.011911,
5.773,5.01224,
5.774,5.011253,
5.775,5.008294,
5.776,5.007965,
5.777,5.009938,
5.778,5.010596,
5.779,5.009609,
5.78,5.009281,
5.781,5.010596,
5.782,5.010596,
5.783,5.008294,
5.784,5.007965,
5.785,5.009609,
5.786,5.010267,
5.787,5.010596,
5.788,5.009281,
5.789,5.009938,
5.79,5.011253,
5.791,5.010267,
5.792,5.009938,
5.793,5.010267,
5.794,5.01224,
5.795,5.014213,
5.796,5.012897,
5.797,5.013555,
5.798,5.013226,
5.799,5.013884,
5.8,5.013555,
5.801,5.01224,
5.802,5.013226,
5.803,5.014213,
5.804,5.014213,
5.805,5.013226,
5.806,5.01224,
5.807,5.012569,
5.808,5.012569,
5.809,5.013226,
5.81,5.011911,
5.811,5.011253,
5.812,5.012569,
5.813,5.01224,
5.814,5.009938,
5.815,5.009938,
5.816,5.009281,
5.817,5.009609,
5.818,5.008623,
5.819,5.007965,
5.82,5.009609,
5.821,5.009609,
5.822,5.008952,
5.823,5.008952,
5.824,5.007637,
5.825,5.007965,
5.826,5.008623,
5.827,5.007637,
5.828,5.007637,
5.829,5.009938,
5.83,5.010596,
5.831,5.011253,
5.832,5.009609,
5.833,5.008952,
5.834,5.011911,
5.835,5.011911,
5.836,5.011253,
5.837,5.010925,
5.838,5.01224,
5.839,5.014213,
5.84,5.013555,
5.841,5.010596,
5.842,5.010267,
5.843,5.012569,
5.844,5.013226,
5.845,5.011253,
5.846,5.011582,
5.847,5.012569,
5.848,5.012569,
5.849,5.010596,
5.85,5.009281,
5.851,5.008952,
5.852,5.010267,
5.853,5.009938,
5.854,5.008952,
5.855,5.008623,
5.856,5.008623,
5.857,5.010267,
5.858,5.008294,
5.859,5.007637,
5.86,5.008623,
5.861,5.009609,
5.862,5.009281,
5.863,5.008294,
5.864,5.008623,
5.865,5.010925,
5.866,5.009281,
5.867,5.008294,
5.868,5.007965,
5.869,5.009938,
5.87,5.011911,
5.871,5.01224,
5.872,5.011911,
5.873,5.012897,
5.874,5.012897,
5.875,5.013226,
5.876,5.011582,
5.877,5.011253,
5.878,5.013555,
5.879,5.013884,
5.88,5.01224,
5.881,5.01224,
5.882,5.012897,
5.883,5.01224,
5.884,5.012897,
5.885,5.01224,
5.886,5.011582,
5.887,5.012897,
5.888,5.014541,
5.889,5.011911,
5.89,5.010596,
5.891,5.009609,
5.892,5.010596,
5.893,5.009938,
5.894,5.008952,
5.895,5.009938,
5.896,5.010925,
5.897,5.011911,
5.898,5.010267,
5.899,5.008952,
5.9,5.010596,
5.901,5.010596,
5.902,5.008952,
5.903,5.010267,
5.904,5.011253,
5.905,5.010925,
5.906,5.01224,
5.907,5.009609,
5.908,5.010596,
5.909,5.01224,
5.91,5.012897,
5.911,5.011911,
5.912,5.011911,
5.913,5.014541,
5.914,5.015199,
5.915,5.012897,
5.916,5.010596,
5.917,5.011911,
5.918,5.013884,
5.919,5.013226,
5.92,5.012569,
5.921,5.012897,
5.922,5.013555,
5.923,5.013555,
5.924,5.011582,
5.925,5.010596,
5.926,5.011582,
5.927,5.012897,
5.928,5.010267,
5.929,5.009938,
5.93,5.010925,
5.931,5.010596,
5.932,5.008623,
5.933,5.006979,
5.934,5.007965,
5.935,5.009281,
5.936,5.008952,
5.937,5.008294,
5.938,5.009281,
5.939,5.010267,
5.94,5.009609,
5.941,5.007637,
5.942,5.008294,
5.943,5.009938,
5.944,5.009938,
5.945,5.009281,
5.946,5.009281,
5.947,5.01224,
5.948,5.011911,
5.949,5.010267,
5.95,5.010267,
5.951,5.010267,
5.952,5.012897,
5.953,5.011911,
5.954,5.011253,
5.955,5.011582,
5.956,5.01224,
5.957,5.013226,
5.958,5.011253,
5.959,5.009609,
5.96,5.011582,
5.961,5.012897,
5.962,5.011911,
5.963,5.010596,
5.964,5.010596,
5.965,5.011911,
5.966,5.009281,
5.967,5.007637,
5.968,5.00665,
5.969,5.008294,
5.97,5.009281,
5.971,5.008623,
5.972,5.008952,
5.973,5.009938,
5.974,5.009281,
5.975,5.007965,
5.976,5.007308,
5.977,5.009281,
5.978,5.010925,
5.979,5.009938,
5.98,5.009281,
5.981,5.010596,
5.982,5.011253,
5.983,5.009938,
5.984,5.009609,
5.985,5.010596,
5.986,5.013555,
5.987,5.014213,
5.988,5.012897,
5.989,5.012897,
5.99,5.014213,
5.991,5.014213,
5.992,5.013884,
5.993,5.01224,
5.994,5.01224,
5.995,5.014541,
5.996,5.014213,
5.997,5.012897,
5.998,5.013226,
5.999,5.013555,
6,5.013226,
6.001,5.012897,
6.002,5.011253,
6.003,5.011911,
6.004,5.013226,
6.005,5.011582,
6.006,5.010925,
6.007,5.009938,
6.008,5.008952,
6.009,5.010925,
6.01,5.009281,
6.011,5.009281,
6.012,5.009938,
6.013,5.011582,
6.014,5.010596,
6.015,5.009281,
6.016,5.009281,
6.017,5.009938,
6.018,5.010596,
6.019,5.009609,
6.02,5.009609,
6.021,5.011911,
6.022,5.012569,
6.023,5.011582,
6.024,5.010925,
6.025,5.010925,
6.026,5.014541,
6.027,5.014213,
6.028,5.011911,
6.029,5.013226,
6.03,5.014541,
6.031,5.014213,
6.032,5.011911,
6.033,5.010596,
6.034,5.012897,
6.035,5.012569,
6.036,5.011582,
6.037,5.011253,
6.038,5.012569,
6.039,5.013555,
6.04,5.011911,
6.041,5.008623,
6.042,5.008952,
6.043,5.009281,
6.044,5.009938,
6.045,5.008952,
6.046,5.008294,
6.047,5.009609,
6.048,5.009938,
6.049,5.007965,
6.05,5.006321,
6.051,5.007637,
6.052,5.008952,
6.053,5.009281,
6.054,5.008623,
6.055,5.008623,
6.056,5.010596,
6.057,5.009938,
6.058,5.007965,
6.059,5.007965,
6.06,5.009281,
6.061,5.011253,
6.062,5.010596,
6.063,5.010925,
6.064,5.012897,
6.065,5.013555,
6.066,5.010596,
6.067,5.009609,
6.068,5.010925,
6.069,5.01224,
6.07,5.012569,
6.071,5.010925,
6.072,5.011253,
6.073,5.013226,
6.074,5.01224,
6.075,5.010267,
6.076,5.009938,
6.077,5.010596,
6.078,5.012569,
6.079,5.011253,
6.08,5.009938,
6.081,5.009938,
6.082,5.010267,
6.083,5.008952,
6.084,5.007637,
6.085,5.00665,
6.086,5.008294,
6.087,5.009609,
6.088,5.009938,
6.089,5.008294,
6.09,5.010267,
6.091,5.009281,
6.092,5.008623,
6.093,5.007637,
6.094,5.008623,
6.095,5.010267,
6.096,5.010267,
6.097,5.009281,
6.098,5.009938,
6.099,5.010596,
6.1,5.011582,
6.101,5.012569,
6.102,5.011253,
6.103,5.012897,
6.104,5.013884,
6.105,5.014541,
6.106,5.013884,
6.107,5.013226,
6.108,5.011582,
6.109,5.014213,
6.11,5.012897,
6.111,5.01224,
6.112,5.013226,
6.113,5.014541,
6.114,5.015528,
6.115,5.012897,
6.116,5.010925,
6.117,5.011911,
6.118,5.012569,
6.119,5.010925,
6.12,5.009609,
6.121,5.010596,
6.122,5.011911,
6.123,5.011582,
6.124,5.008623,
6.125,5.008623,
6.126,5.009609,
6.127,5.010596,
6.128,5.009609,
6.129,5.008952,
6.13,5.010596,
6.131,5.010596,
6.132,5.009609,
6.133,5.007637,
6.134,5.008952,
6.135,5.010267,
6.136,5.009281,
6.137,5.009609,
6.138,5.011253,
6.139,5.01224,
6.14,5.013226,
6.141,5.010267,
6.142,5.011911,
6.143,5.012897,
6.144,5.013226,
6.145,5.012569,
6.146,5.010925,
6.147,5.013555,
6.148,5.013884,
6.149,5.011582,
6.15,5.010267,
6.151,5.010267,
6.152,5.011582,
6.153,5.012569,
6.154,5.010596,
6.155,5.010596,
6.156,5.009938,
6.157,5.010596,
6.158,5.009281,
6.159,5.007637,
6.16,5.007308,
6.161,5.008623,
6.162,5.008952,
6.163,5.008952,
6.164,5.007965,
6.165,5.008952,
6.166,5.008623,
6.167,5.007965,
6.168,5.007965,
6.169,5.006979,
6.17,5.008952,
6.171,5.010267,
6.172,5.009938,
6.173,5.009281,
6.174,5.007965,
6.175,5.009938,
6.176,5.011253,
6.177,5.009938,
6.178,5.010925,
6.179,5.011911,
6.18,5.013555,
6.181,5.014541,
6.182,5.011253,
6.183,5.010925,
6.184,5.010925,
6.185,5.011911,
6.186,5.01224,
6.187,5.011253,
6.188,5.01224,
6.189,5.013226,
6.19,5.012897,
6.191,5.010925,
6.192,5.010596,
6.193,5.011582,
6.194,5.011582,
6.195,5.009938,
6.196,5.009609,
6.197,5.010267,
6.198,5.011582,
6.199,5.010267,
6.2,5.007637,
6.201,5.008623,
6.202,5.009281,
6.203,5.010596,
6.204,5.009281,
6.205,5.009281,
6.206,5.011253,
6.207,5.011911,
6.208,5.008952,
6.209,5.008623,
6.21,5.010267,
6.211,5.010925,
6.212,5.010925,
6.213,5.010925,
6.214,5.011582,
6.215,5.01487,
6.216,5.013226,
6.217,5.01224,
6.218,5.011911,
6.219,5.013884,
6.22,5.014541,
6.221,5.013226,
6.222,5.013555,
6.223,5.013884,
6.224,5.014213,
6.225,5.013884,
6.226,5.011911,
6.227,5.012569,
6.228,5.013884,
6.229,5.013555,
6.23,5.012569,
6.231,5.011582,
6.232,5.011582,
6.233,5.010925,
6.234,5.009281,
6.235,5.007637,
6.236,5.008952,
6.237,5.010267,
6.238,5.008952,
6.239,5.008294,
6.24,5.008623,
6.241,5.008623,
6.242,5.008952,
6.243,5.007308,
6.244,5.007637,
6.245,5.009609,
6.246,5.008623,
6.247,5.007637,
6.248,5.009281,
6.249,5.009281,
6.25,5.009938,
6.251,5.008623,
6.252,5.008294,
6.253,5.011911,
6.254,5.011911,
6.255,5.011911,
6.256,5.012569,
6.257,5.01224,
6.258,5.012569,
6.259,5.012569,
6.26,5.010925,
6.261,5.011911,
6.262,5.012897,
6.263,5.012897,
6.264,5.012897,
6.265,5.011253,
6.266,5.011253,
6.267,5.012569,
6.268,5.010596,
6.269,5.009938,
6.27,5.010267,
6.271,5.011582,
6.272,5.010925,
6.273,5.010267,
6.274,5.008952,
6.275,5.008294,
6.276,5.010267,
6.277,5.008952,
6.278,5.007637,
6.279,5.009938,
6.28,5.010267,
6.281,5.011253,
6.282,5.009609,
6.283,5.007965,
6.284,5.009938,
6.285,5.010596,
6.286,5.008623,
6.287,5.009938,
6.288,5.011582,
6.289,5.012897,
6.29,5.012569,
6.291,5.010596,
6.292,5.011582,
6.293,5.013884,
6.294,5.014213,
6.295,5.012569,
6.296,5.012897,
6.297,5.015199,
6.298,5.015856,
6.299,5.012569,
6.3,5.011582,
6.301,5.012569,
6.302,5.01487,
6.303,5.013884,
6.304,5.012569,
6.305,5.013226,
6.306,5.013884,
6.307,5.014213,
6.308,5.011582,
6.309,5.010267,
6.31,5.010925,
6.311,5.01224,
6.312,5.010267,
6.313,5.009938,
6.314,5.010267,
6.315,5.010925,
6.316,5.009281,
6.317,5.008623,
6.318,5.008623,
6.319,5.009938,
6.32,5.010596,
6.321,5.009938,
6.322,5.010596,
6.323,5.010596,
6.324,5.010267,
6.325,5.010267,
6.326,5.008294,
6.327,5.009609,
6.328,5.011911,
6.329,5.01224,
6.33,5.011911,
6.331,5.011253,
6.332,5.012897,
6.333,5.012569,
6.334,5.011911,
6.335,5.011582,
6.336,5.011911,
6.337,5.013226,
6.338,5.013555,
6.339,5.011911,
6.34,5.011253,
6.341,5.01224,
6.342,5.011911,
6.343,5.010596,
6.344,5.009938,
6.345,5.012569,
6.346,5.01224,
6.347,5.010596,
6.348,5.009938,
6.349,5.008294,
6.35,5.007965,
6.351,5.008952,
6.352,5.007308,
6.353,5.007308,
6.354,5.008623,
6.355,5.009281,
6.356,5.010925,
6.357,5.007637,
6.358,5.006979,
6.359,5.007965,
6.36,5.008952,
6.361,5.007637,
6.362,5.008623,
6.363,5.009938,
6.364,5.011253,
6.365,5.009938,
6.366,5.008294,
6.367,5.009938,
6.368,5.011911,
6.369,5.011911,
6.37,5.011582,
6.371,5.013226,
6.372,5.013555,
6.373,5.013884,
6.374,5.011911,
6.375,5.011582,
6.376,5.012897,
6.377,5.013884,
6.378,5.012897,
6.379,5.011253,
6.38,5.013884,
6.381,5.01487,
6.382,5.013884,
6.383,5.010267,
6.384,5.010925,
6.385,5.011911,
6.386,5.011911,
6.387,5.009938,
6.388,5.009938,
6.389,5.011911,
6.39,5.01224,
6.391,5.007965,
6.392,5.008623,
6.393,5.008952,
6.394,5.010267,
6.395,5.010596,
6.396,5.009281,
6.397,5.010596,
6.398,5.012569,
6.399,5.010267,
6.4,5.008623,
6.401,5.008952,
6.402,5.009938,
6.403,5.011911,
6.404,5.010596,
6.405,5.01224,
6.406,5.01224,
6.407,5.013226,
6.408,5.012897,
6.409,5.012897,
6.41,5.012569,
6.411,5.013226,
6.412,5.01487,
6.413,5.014541,
6.414,5.013555,
6.415,5.013226,
6.416,5.012897,
6.417,5.01224,
6.418,5.012569,
6.419,5.011911,
6.42,5.011911,
6.421,5.014213,
6.422,5.012569,
6.423,5.011911,
6.424,5.010267,
6.425,5.010267,
6.426,5.011253,
6.427,5.008952,
6.428,5.008952,
6.429,5.010925,
6.43,5.011253,
6.431,5.011253,
6.432,5.008623,
6.433,5.007308,
6.434,5.009609,
6.435,5.010596,
6.436,5.008952,
6.437,5.008952,
6.438,5.010596,
6.439,5.011582,
6.44,5.010596,
6.441,5.007637,
6.442,5.009609,
6.443,5.011582,
6.444,5.011911,
6.445,5.011582,
6.446,5.011582,
6.447,5.013555,
6.448,5.013555,
6.449,5.011911,
6.45,5.010596,
6.451,5.009938,
6.452,5.013226,
6.453,5.013226,
6.454,5.011582,
6.455,5.011253,
6.456,5.012569,
6.457,5.012897,
6.458,5.011253,
6.459,5.010267,
6.46,5.010596,
6.461,5.011911,
6.462,5.01224,
6.463,5.009609,
6.464,5.008623,
6.465,5.010925,
6.466,5.007637,
6.467,5.007637,
6.468,5.007308,
6.469,5.007308,
6.47,5.008952,
6.471,5.009281,
6.472,5.008294,
6.473,5.009281,
6.474,5.009281,
6.475,5.008623,
6.476,5.007965,
6.477,5.007308,
6.478,5.008952,
6.479,5.010596,
6.48,5.009281,
6.481,5.010596,
6.482,5.010596,
6.483,5.01224,
6.484,5.011582,
6.485,5.010267,
6.486,5.010596,
6.487,5.013226,
6.488,5.013884,
6.489,5.013884,
6.49,5.011911,
6.491,5.01224,
6.492,5.013226,
6.493,5.011582,
6.494,5.011582,
6.495,5.011911,
6.496,5.013555,
6.497,5.013226,
6.498,5.012569,
6.499,5.011582,
6.5,5.011253,
6.501,5.011253,
6.502,5.009938,
6.503,5.009281,
6.504,5.010596,
6.505,5.011253,
6.506,5.009281,
6.507,5.010596,
6.508,5.010267,
6.509,5.010267,
6.51,5.009938,
6.511,5.009281,
6.512,5.010596,
6.513,5.01224,
6.514,5.011253,
6.515,5.010596,
6.516,5.009938,
6.517,5.010596,
6.518,5.011582,
6.519,5.010596,
6.52,5.011253,
6.521,5.012897,
6.522,5.013884,
6.523,5.014213,
6.524,5.011582,
6.525,5.011911,
6.526,5.014541,
6.527,5.013226,
6.528,5.011911,
6.529,5.01224,
6.53,5.014541,
6.531,5.014541,
6.532,5.011911,
6.533,5.010925,
6.534,5.01224,
6.535,5.012897,
6.536,5.011582,
6.537,5.010596,
6.538,5.010596,
6.539,5.011253,
6.54,5.011253,
6.541,5.008294,
6.542,5.006979,
6.543,5.008623,
6.544,5.008623,
6.545,5.007965,
6.546,5.007965,
6.547,5.009281,
6.548,5.010267,
6.549,5.008623,
6.55,5.00665,
6.551,5.007637,
6.552,5.008952,
6.553,5.009281,
6.554,5.008623,
6.555,5.008623,
6.556,5.008952,
6.557,5.010925,
6.558,5.009281,
6.559,5.009609,
6.56,5.010267,
6.561,5.012897,
6.562,5.013226,
6.563,5.011253,
6.564,5.01224,
6.565,5.013226,
6.566,5.012569,
6.567,5.011911,
6.568,5.010267,
6.569,5.01224,
6.57,5.012897,
6.571,5.01224,
6.572,5.011911,
6.573,5.011253,
6.574,5.011911,
6.575,5.01224,
6.576,5.009281,
6.577,5.008952,
6.578,5.010267,
6.579,5.010596,
6.58,5.008952,
6.581,5.008294,
6.582,5.008952,
6.583,5.007965,
6.584,5.007965,
6.585,5.006979,
6.586,5.007965,
6.587,5.008952,
6.588,5.009281,
6.589,5.008623,
6.59,5.008623,
6.591,5.008294,
6.592,5.008952,
6.593,5.008623,
6.594,5.007965,
6.595,5.010267,
6.596,5.010925,
6.597,5.011582,
6.598,5.011911,
6.599,5.011253,
6.6,5.012569,
6.601,5.012569,
6.602,5.01224,
6.603,5.011253,
6.604,4.699557,
6.605,0.089883,
6.606,0.088568,
6.607,0.089226,
6.608,0.088897,
6.609,0.089226,
6.61,0.089226,
6.611,0.088897,
6.612,0.089226,
6.613,0.088568,
6.614,0.089226,
6.615,0.088568,
6.616,0.088897,
6.617,0.088568,
6.618,0.088897,
6.619,0.089226,
6.62,0.088897,
6.621,0.089226,
6.622,0.088568,
6.623,0.089226,
6.624,0.089226,
6.625,0.088568,
6.626,0.089226,
6.627,0.088568,
6.628,0.088568,
6.629,0.089226,
6.63,0.088897,
6.631,0.088568,
6.632,0.088897,
6.633,0.102049,
6.634,5.008952,
6.635,5.012897,
6.636,5.013226,
6.637,5.012569,
6.638,5.01224,
6.639,5.01487,
6.64,5.014541,
6.641,5.01224,
6.642,5.012569,
6.643,5.012569,
6.644,5.014213,
6.645,5.014541,
6.646,5.012569,
6.647,5.012897,
6.648,5.014541,
6.649,5.014213,
6.65,5.011582,
6.651,5.010267,
6.652,5.011582,
6.653,5.012569,
6.654,5.011253,
6.655,5.009938,
6.656,5.009609,
6.657,5.009281,
6.658,5.008952,
6.659,5.008294,
6.66,5.007637,
6.661,5.009938,
6.662,5.010925,
6.663,5.009938,
6.664,5.008623,
6.665,5.009938,
6.666,5.009281,
6.667,5.008623,
6.668,5.007965,
6.669,5.007965,
6.67,5.009281,
6.671,5.011253,
6.672,5.009938,
6.673,5.011253,
6.674,5.011253,
6.675,5.011582,
6.676,5.011582,
6.677,5.010925,
6.678,5.011911,
6.679,5.012897,
6.68,5.011911,
6.681,5.012569,
6.682,5.01224,
6.683,5.01224,
6.684,5.01224,
6.685,5.010596,
6.686,5.010925,
6.687,5.01224,
6.688,5.012897,
6.689,5.010925,
6.69,5.009281,
6.691,5.010267,
6.692,5.010596,
6.693,5.009938,
6.694,5.007965,
6.695,5.008623,
6.696,5.010267,
6.697,5.010267,
6.698,5.008294,
6.699,5.007965,
6.7,5.007965,
6.701,5.008623,
6.702,5.007965,
6.703,5.006979,
6.704,5.008952,
6.705,5.009938,
6.706,5.011582,
6.707,5.009609,
6.708,5.007965,
6.709,5.010267,
6.71,5.010596,
6.711,5.010596,
6.712,5.011582,
6.713,5.012569,
6.714,5.013884,
6.715,5.014541,
6.716,5.011582,
6.717,5.011911,
6.718,5.013555,
6.719,5.014541,
6.72,5.012569,
6.721,5.012569,
6.722,5.014541,
6.723,5.01487,
6.724,5.013555,
6.725,5.011253,
6.726,5.011911,
6.727,5.013226,
6.728,5.014213,
6.729,5.011911,
6.73,5.010267,
6.731,5.011253,
6.732,5.012569,
6.733,5.009938,
6.734,5.008623,
6.735,5.009281,
6.736,5.010267,
6.737,5.010925,
6.738,5.009281,
6.739,5.009281,
6.74,5.011253,
6.741,5.009938,
6.742,5.008952,
6.743,5.008623,
6.744,5.010267,
6.745,5.011253,
6.746,5.010925,
6.747,5.010925,
6.748,5.010925,
6.749,5.012569,
6.75,5.011911,
6.751,5.011582,
6.752,5.011582,
6.753,5.013226,
6.754,5.014213,
6.755,5.013884,
6.756,5.012569,
6.757,5.011253,
6.758,5.01224,
6.759,5.01224,
6.76,5.011253,
6.761,5.011911,
6.762,5.012897,
6.763,5.013226,
6.764,5.011582,
6.765,5.010596,
6.766,5.010596,
6.767,5.009938,
6.768,5.008952,
6.769,5.008294,
6.77,5.008623,
6.771,5.009609,
6.772,5.009281,
6.773,5.007637,
6.774,5.006979,
6.775,5.007308,
6.776,5.008623,
6.777,5.007965,
6.778,5.007637,
6.779,5.009281,
6.78,5.009609,
6.781,5.010925,
6.782,5.007965,
6.783,5.006321,
6.784,5.008952,
6.785,5.009609,
6.786,5.009609,
6.787,5.009281,
6.788,5.011253,
6.789,5.013226,
6.79,5.013555,
6.791,5.009938,
6.792,5.011253,
6.793,5.01224,
6.794,5.012897,
6.795,5.010925,
6.796,5.01224,
6.797,5.014213,
6.798,5.01487,
6.799,5.010596,
6.8,5.010925,
6.801,5.01224,
6.802,5.013555,
6.803,5.012569,
6.804,5.011253,
6.805,5.01224,
6.806,5.013226,
6.807,5.012569,
6.808,5.008952,
6.809,5.007965,
6.81,5.010925,
6.811,5.010596,
6.812,5.009281,
6.813,5.009281,
6.814,5.011253,
6.815,5.011582,
6.816,5.008952,
6.817,5.007965,
6.818,5.009609,
6.819,5.011253,
6.82,5.011582,
6.821,5.009609,
6.822,5.009281,
6.823,5.011911,
6.824,5.011253,
6.825,5.009938,
6.826,5.010267,
6.827,5.012569,
6.828,5.015199,
6.829,5.013226,
6.83,5.012897,
6.831,5.01224,
6.832,5.014213,
6.833,5.012569,
6.834,5.011253,
6.835,5.012569,
6.836,5.012569,
6.837,5.013555,
6.838,5.013884,
6.839,5.011911,
6.84,5.011253,
6.841,5.012569,
6.842,5.011911,
6.843,5.009938,
6.844,5.009938,
6.845,5.011253,
6.846,5.011253,
6.847,5.009281,
6.848,5.008623,
6.849,5.008952,
6.85,5.008623,
6.851,5.007308,
6.852,5.00665,
6.853,5.007965,
6.854,5.009281,
6.855,5.009281,
6.856,5.008952,
6.857,5.008294,
6.858,5.008294,
6.859,5.009281,
6.86,5.007637,
6.861,5.007308,
6.862,5.009938,
6.863,5.011911,
6.864,5.011911,
6.865,5.010596,
6.866,5.010267,
6.867,5.012569,
6.868,5.013226,
6.869,5.010925,
6.87,5.010596,
6.871,5.010596,
6.872,5.013555,
6.873,5.014213,
6.874,5.011253,
6.875,5.010925,
6.876,5.011911,
6.877,5.011582,
6.878,5.010925,
6.879,5.010596,
6.88,5.012569,
6.881,5.013226,
6.882,5.009281,
6.883,5.008623,
6.884,5.008623,
6.885,5.009281,
6.886,5.008623,
6.887,5.008294,
6.888,5.008952,
6.889,5.010596,
6.89,5.010925,
6.891,5.007965,
6.892,5.00665,
6.893,5.009609,
6.894,5.010267,
6.895,5.008623,
6.896,5.009281,
6.897,5.009281,
6.898,5.011253,
6.899,5.010596,
6.9,5.008623,
6.901,5.008952,
6.902,5.011582,
6.903,5.012569,
6.904,5.012897,
6.905,5.011911,
6.906,5.012569,
6.907,5.013555,
6.908,5.012897,
6.909,5.012897,
6.91,5.011582,
6.911,5.013555,
6.912,5.013884,
6.913,5.013226,
6.914,5.012897,
6.915,5.012897,
6.916,5.013884,
6.917,5.012897,
6.918,5.011582,
6.919,5.011253,
6.92,5.013226,
6.921,5.013555,
6.922,5.011911,
6.923,5.010596,
6.924,5.009938,
6.925,5.010925,
6.926,5.010267,
6.927,5.009938,
6.928,5.009938,
6.929,5.010925,
6.93,5.011253,
6.931,5.010596,
6.932,5.009938,
6.933,5.009281,
6.934,5.010267,
6.935,5.009609,
6.936,5.009281,
6.937,5.011582,
6.938,5.010596,
6.939,5.011911,
6.94,5.01224,
6.941,5.01224,
6.942,5.013884,
6.943,5.012569,
6.944,5.011911,
6.945,5.01224,
6.946,5.014213,
6.947,5.015528,
6.948,5.014541,
6.949,5.012897,
6.95,5.01224,
6.951,5.013226,
6.952,5.013555,
6.953,5.01224,
6.954,5.01224,
6.955,5.014213,
6.956,5.012897,
6.957,5.011253,
6.958,5.008952,
6.959,5.010925,
6.96,5.010925,
6.961,5.009281,
6.962,5.009281,
6.963,5.009938,
6.964,5.010267,
6.965,5.009281,
6.966,5.006979,
6.967,5.007965,
6.968,5.009281,
6.969,5.008952,
6.97,5.007965,
6.971,5.008952,
6.972,5.009938,
6.973,5.010596,
6.974,5.008623,
6.975,5.007637,
6.976,5.008952,
6.977,5.010925,
6.978,5.01224,
6.979,5.010267,
6.98,5.011582,
6.981,5.013555,
6.982,5.012569,
6.983,5.010925,
6.984,5.010267,
6.985,5.011911,
6.986,5.012569,
6.987,5.011911,
6.988,5.010267,
6.989,5.011911,
6.99,5.012897,
6.991,5.011911,
6.992,5.011253,
6.993,5.009281,
6.994,5.011253,
6.995,5.012897,
6.996,5.010267,
6.997,5.009938,
6.998,5.010267,
6.999,5.009938,
