LabVIEW Measurement,,
Writer_Version,2,
Reader_Version,2,
Separator,Tab,
Decimal_Separator,.,
Multi_Headings,Yes,
X_Columns,Multi,
Time_Pref,Absolute,
Operator,RHAYESHUER,
Date,2/19/2020,
Time,08:40.0,
***End_of_Header***,,
,,
Channels,1,
Samples,7000,
Date,2/19/2020,
Time,08:40.0,
Y_Unit_Label,Volts,
X_Dimension,Time,
X0,0.00E+00,
Delta_X,0.001,
***End_of_Header***,,
X_Value,Voltage,Comment
0,4.976072,19.8 cm
0.001,4.978045,
0.002,4.975744,
0.003,4.974428,
0.004,4.976072,
0.005,4.978045,
0.006,4.97673,
0.007,4.973771,
0.008,4.973771,
0.009,4.975744,
0.01,4.976401,
0.011,4.974428,
0.012,4.972456,
0.013,4.974428,
0.014,4.97673,
0.015,4.9741,
0.016,4.971798,
0.017,4.974428,
0.018,4.976401,
0.019,4.976072,
0.02,4.973113,
0.021,4.975415,
0.022,4.977059,
0.023,4.975744,
0.024,4.9741,
0.025,4.9741,
0.026,4.977059,
0.027,4.977059,
0.028,4.975415,
0.029,4.97673,
0.03,4.979032,
0.031,4.979032,
0.032,4.977388,
0.033,4.975415,
0.034,4.978374,
0.035,4.97936,
0.036,4.979032,
0.037,4.977059,
0.038,4.977716,
0.039,4.979032,
0.04,4.980018,
0.041,4.97673,
0.042,4.976401,
0.043,4.978374,
0.044,4.979689,
0.045,4.979032,
0.046,4.977059,
0.047,4.976401,
0.048,4.977388,
0.049,4.977716,
0.05,4.975744,
0.051,4.973442,
0.052,4.976401,
0.053,4.978045,
0.054,4.975415,
0.055,4.975415,
0.056,4.976072,
0.057,4.975744,
0.058,4.975086,
0.059,4.9741,
0.06,4.975415,
0.061,4.977388,
0.062,4.97673,
0.063,4.974757,
0.064,4.974757,
0.065,4.975744,
0.066,4.97673,
0.067,4.975086,
0.068,4.975415,
0.069,4.979032,
0.07,4.979032,
0.071,4.977716,
0.072,4.977059,
0.073,4.978374,
0.074,4.978703,
0.075,4.976401,
0.076,4.97673,
0.077,4.977059,
0.078,4.979032,
0.079,4.978703,
0.08,4.975086,
0.081,4.976401,
0.082,4.97673,
0.083,4.97673,
0.084,4.975415,
0.085,4.975415,
0.086,4.976401,
0.087,4.977716,
0.088,4.975086,
0.089,4.973442,
0.09,4.973113,
0.091,4.976072,
0.092,4.9741,
0.093,4.972127,
0.094,4.973442,
0.095,4.976072,
0.096,4.975086,
0.097,4.973442,
0.098,4.972127,
0.099,4.973771,
0.1,4.976401,
0.101,4.972785,
0.102,4.972456,
0.103,4.975744,
0.104,4.976072,
0.105,4.975744,
0.106,4.973771,
0.107,4.975086,
0.108,4.977716,
0.109,4.976072,
0.11,4.975086,
0.111,4.976072,
0.112,4.977716,
0.113,4.977716,
0.114,4.975086,
0.115,4.973771,
0.116,4.976401,
0.117,4.975415,
0.118,4.973771,
0.119,4.975086,
0.12,4.977716,
0.121,4.976401,
0.122,4.975086,
0.123,4.973113,
0.124,4.974757,
0.125,4.975415,
0.126,4.972785,
0.127,4.971798,
0.128,4.9741,
0.129,4.975415,
0.13,4.975086,
0.131,4.972127,
0.132,4.971798,
0.133,4.974757,
0.134,4.973771,
0.135,4.972456,
0.136,4.973113,
0.137,4.974757,
0.138,4.975744,
0.139,4.973442,
0.14,4.971798,
0.141,4.973442,
0.142,4.975086,
0.143,4.9741,
0.144,4.974757,
0.145,4.976072,
0.146,4.977716,
0.147,4.97673,
0.148,4.973771,
0.149,4.975744,
0.15,4.975744,
0.151,4.97673,
0.152,4.975086,
0.153,4.976072,
0.154,4.978045,
0.155,4.978703,
0.156,4.974428,
0.157,4.973771,
0.158,4.97673,
0.159,4.979032,
0.16,4.977388,
0.161,4.974428,
0.162,4.975086,
0.163,4.977388,
0.164,4.977716,
0.165,4.973771,
0.166,4.972127,
0.167,4.9741,
0.168,4.975744,
0.169,4.975415,
0.17,4.973771,
0.171,4.975086,
0.172,4.977388,
0.173,4.975415,
0.174,4.973113,
0.175,4.973442,
0.176,4.975744,
0.177,4.976072,
0.178,4.97673,
0.179,4.9741,
0.18,4.976401,
0.181,4.978374,
0.182,4.977059,
0.183,4.976072,
0.184,4.976072,
0.185,4.977388,
0.186,4.980018,
0.187,4.978045,
0.188,4.978045,
0.189,4.97936,
0.19,4.978374,
0.191,4.978703,
0.192,4.97673,
0.193,4.977388,
0.194,4.979689,
0.195,4.980018,
0.196,4.977716,
0.197,4.977388,
0.198,4.978703,
0.199,4.978374,
0.2,4.975086,
0.201,4.975086,
0.202,4.97673,
0.203,4.977388,
0.204,4.975415,
0.205,4.975086,
0.206,4.975744,
0.207,4.977059,
0.208,4.974757,
0.209,4.9741,
0.21,4.975744,
0.211,4.977388,
0.212,4.977059,
0.213,4.975744,
0.214,4.974757,
0.215,4.975744,
0.216,4.976072,
0.217,0.151038,
0.218,0.102049,
0.219,0.091198,
0.22,0.088239,
0.221,0.087253,
0.222,0.087253,
0.223,0.086924,
0.224,0.086595,
0.225,0.086924,
0.226,0.086595,
0.227,0.086595,
0.228,0.086595,
0.229,0.086924,
0.23,0.087253,
0.231,0.086266,
0.232,0.086595,
0.233,0.087253,
0.234,0.087253,
0.235,0.087253,
0.236,0.086924,
0.237,0.086266,
0.238,0.087253,
0.239,0.086924,
0.24,0.086595,
0.241,0.086924,
0.242,0.086595,
0.243,0.086924,
0.244,0.086595,
0.245,0.086595,
0.246,0.086924,
0.247,0.087253,
0.248,0.086924,
0.249,0.087253,
0.25,0.087253,
0.251,0.086595,
0.252,0.086595,
0.253,0.086595,
0.254,0.086924,
0.255,0.086924,
0.256,0.087253,
0.257,0.086595,
0.258,0.087253,
0.259,0.086924,
0.26,0.086924,
0.261,0.086924,
0.262,0.086924,
0.263,0.086924,
0.264,0.086595,
0.265,0.086924,
0.266,0.086595,
0.267,0.086595,
0.268,0.086924,
0.269,0.086595,
0.27,0.086595,
0.271,0.086924,
0.272,0.086266,
0.273,0.086266,
0.274,0.086595,
0.275,0.086595,
0.276,0.086595,
0.277,0.086924,
0.278,0.087253,
0.279,0.086924,
0.28,0.086924,
0.281,0.086595,
0.282,0.086595,
0.283,0.086595,
0.284,0.087253,
0.285,0.086924,
0.286,0.087582,
0.287,0.094158,
0.288,0.129996,
0.289,4.972127,
0.29,4.972127,
0.291,4.971141,
0.292,4.973113,
0.293,4.974428,
0.294,4.9741,
0.295,4.973113,
0.296,4.975415,
0.297,4.977059,
0.298,4.975744,
0.299,4.973771,
0.3,4.975086,
0.301,4.977716,
0.302,4.977059,
0.303,4.976401,
0.304,4.975744,
0.305,4.978374,
0.306,4.978374,
0.307,4.974757,
0.308,4.973771,
0.309,4.977059,
0.31,4.977716,
0.311,4.977059,
0.312,4.974757,
0.313,4.97673,
0.314,4.977059,
0.315,4.975415,
0.316,4.973771,
0.317,4.972127,
0.318,4.975415,
0.319,4.976072,
0.32,4.974428,
0.321,4.974757,
0.322,4.975744,
0.323,4.976072,
0.324,4.976072,
0.325,4.973113,
0.326,4.974757,
0.327,4.97673,
0.328,4.975744,
0.329,4.974757,
0.33,4.976401,
0.331,4.977059,
0.332,4.97673,
0.333,4.973771,
0.334,4.974757,
0.335,4.978703,
0.336,4.978374,
0.337,4.977388,
0.338,4.977716,
0.339,4.97936,
0.34,4.979032,
0.341,4.97673,
0.342,4.97673,
0.343,4.979032,
0.344,4.980347,
0.345,4.978703,
0.346,4.977059,
0.347,4.979689,
0.348,4.979032,
0.349,4.97673,
0.35,4.977388,
0.351,4.977388,
0.352,4.979032,
0.353,4.978703,
0.354,4.975744,
0.355,4.976401,
0.356,4.977716,
0.357,4.976401,
0.358,4.974428,
0.359,4.973113,
0.36,4.975744,
0.361,4.977716,
0.362,4.975744,
0.363,4.974428,
0.364,4.975086,
0.365,4.975744,
0.366,4.975415,
0.367,4.973442,
0.368,4.974428,
0.369,4.976072,
0.37,4.976072,
0.371,4.976072,
0.372,4.9741,
0.373,4.975415,
0.374,4.977059,
0.375,4.975744,
0.376,4.976072,
0.377,4.977388,
0.378,4.978374,
0.379,4.978374,
0.38,4.976401,
0.381,4.975415,
0.382,4.977388,
0.383,4.977388,
0.384,4.976401,
0.385,4.975744,
0.386,4.977388,
0.387,4.97936,
0.388,4.976401,
0.389,4.974428,
0.39,4.9741,
0.391,4.976072,
0.392,4.975744,
0.393,4.972456,
0.394,4.973113,
0.395,4.974428,
0.396,4.975415,
0.397,4.973442,
0.398,4.970483,
0.399,4.972127,
0.4,4.974757,
0.401,4.972785,
0.402,4.971469,
0.403,4.973442,
0.404,4.975086,
0.405,4.975086,
0.406,4.971469,
0.407,4.971798,
0.408,4.974757,
0.409,4.973771,
0.41,4.973113,
0.411,4.9741,
0.412,4.976072,
0.413,4.978703,
0.414,4.975744,
0.415,4.9741,
0.416,4.974428,
0.417,4.976401,
0.418,4.976401,
0.419,4.973771,
0.42,4.975744,
0.421,4.977716,
0.422,4.978374,
0.423,4.975086,
0.424,4.9741,
0.425,4.977716,
0.426,4.979032,
0.427,4.976072,
0.428,4.976401,
0.429,4.977388,
0.43,4.979032,
0.431,4.977059,
0.432,4.9741,
0.433,4.973771,
0.434,4.977059,
0.435,4.976401,
0.436,4.975086,
0.437,4.974428,
0.438,4.977059,
0.439,4.978045,
0.44,4.973771,
0.441,4.973113,
0.442,4.974757,
0.443,4.977059,
0.444,4.977388,
0.445,4.975086,
0.446,4.976072,
0.447,4.977388,
0.448,4.977059,
0.449,4.975415,
0.45,4.975415,
0.451,4.978045,
0.452,4.979689,
0.453,4.977388,
0.454,4.978045,
0.455,4.979689,
0.456,4.979689,
0.457,4.977388,
0.458,4.976401,
0.459,4.978703,
0.46,4.980676,
0.461,4.978703,
0.462,4.977716,
0.463,4.978703,
0.464,4.979689,
0.465,4.978703,
0.466,4.976072,
0.467,4.975744,
0.468,4.978374,
0.469,4.978374,
0.47,4.975744,
0.471,4.975415,
0.472,4.97673,
0.473,4.97673,
0.474,4.975415,
0.475,4.9741,
0.476,4.975744,
0.477,4.976072,
0.478,4.977059,
0.479,4.974757,
0.48,4.974428,
0.481,4.976401,
0.482,4.975744,
0.483,4.973771,
0.484,4.9741,
0.485,4.976072,
0.486,4.97673,
0.487,4.975744,
0.488,4.975415,
0.489,4.977716,
0.49,4.977059,
0.491,4.977059,
0.492,4.975415,
0.493,4.97673,
0.494,4.978703,
0.495,4.978374,
0.496,4.975744,
0.497,4.976072,
0.498,4.977059,
0.499,4.976401,
0.5,4.973771,
0.501,4.975086,
0.502,4.97673,
0.503,4.977059,
0.504,4.974757,
0.505,4.973771,
0.506,4.974757,
0.507,4.975086,
0.508,4.973771,
0.509,4.972127,
0.51,4.972456,
0.511,4.974428,
0.512,4.976072,
0.513,4.9741,
0.514,4.972127,
0.515,4.972127,
0.516,4.973771,
0.517,4.975415,
0.518,4.972127,
0.519,4.972127,
0.52,4.974757,
0.521,4.975086,
0.522,4.9741,
0.523,4.971469,
0.524,4.973442,
0.525,4.975744,
0.526,4.9741,
0.527,4.9741,
0.528,4.975744,
0.529,4.977059,
0.53,4.979032,
0.531,4.975086,
0.532,4.974757,
0.533,4.977059,
0.534,4.976401,
0.535,4.975744,
0.536,4.975744,
0.537,4.977716,
0.538,4.97936,
0.539,4.975086,
0.54,4.975086,
0.541,4.978045,
0.542,4.977716,
0.543,4.975415,
0.544,4.974428,
0.545,4.977059,
0.546,4.979032,
0.547,4.975415,
0.548,4.972456,
0.549,4.973771,
0.55,4.975744,
0.551,4.975086,
0.552,4.972127,
0.553,4.974428,
0.554,4.976401,
0.555,4.975086,
0.556,4.973113,
0.557,4.973442,
0.558,4.974428,
0.559,4.976072,
0.56,4.972456,
0.561,4.973771,
0.562,4.977059,
0.563,4.978374,
0.564,4.97673,
0.565,4.975086,
0.566,4.977059,
0.567,4.980018,
0.568,4.978374,
0.569,4.97673,
0.57,4.977716,
0.571,4.980676,
0.572,4.980347,
0.573,4.976401,
0.574,4.97673,
0.575,4.979032,
0.576,4.981004,
0.577,4.978374,
0.578,4.977388,
0.579,4.979032,
0.58,4.980676,
0.581,4.978045,
0.582,4.975744,
0.583,4.975086,
0.584,4.977059,
0.585,4.977716,
0.586,4.974757,
0.587,4.975744,
0.588,4.97673,
0.589,4.977059,
0.59,4.974757,
0.591,4.9741,
0.592,4.9741,
0.593,4.97673,
0.594,4.977059,
0.595,4.975744,
0.596,4.975086,
0.597,4.977388,
0.598,4.976072,
0.599,4.9741,
0.6,4.975086,
0.601,4.977388,
0.602,4.977059,
0.603,4.976401,
0.604,4.976401,
0.605,4.979032,
0.606,4.978703,
0.607,4.975744,
0.608,4.975086,
0.609,4.976401,
0.61,4.97673,
0.611,4.978374,
0.612,4.976072,
0.613,4.974428,
0.614,4.977059,
0.615,4.97673,
0.616,4.975086,
0.617,4.9741,
0.618,4.975415,
0.619,4.977388,
0.62,4.974757,
0.621,4.973442,
0.622,4.974428,
0.623,4.974757,
0.624,4.975415,
0.625,4.972456,
0.626,4.972127,
0.627,4.974428,
0.628,4.974757,
0.629,4.973771,
0.63,4.972456,
0.631,4.973442,
0.632,4.975086,
0.633,4.972785,
0.634,4.971141,
0.635,4.974428,
0.636,4.974757,
0.637,4.973442,
0.638,4.973771,
0.639,4.9741,
0.64,4.976401,
0.641,4.975744,
0.642,0.167807,
0.643,0.098761,
0.644,0.088239,
0.645,0.086924,
0.646,0.086924,
0.647,0.087253,
0.648,0.086924,
0.649,0.086924,
0.65,0.086595,
0.651,0.086924,
0.652,0.086924,
0.653,0.087253,
0.654,0.086924,
0.655,0.087253,
0.656,0.086595,
0.657,0.086595,
0.658,0.086595,
0.659,0.086595,
0.66,0.086595,
0.661,0.086595,
0.662,0.087253,
0.663,0.086595,
0.664,0.086595,
0.665,0.086924,
0.666,0.086924,
0.667,0.086924,
0.668,0.086595,
0.669,0.087253,
0.67,0.086595,
0.671,0.087253,
0.672,0.086924,
0.673,0.086266,
0.674,0.087253,
0.675,0.086595,
0.676,0.087253,
0.677,0.086595,
0.678,0.086924,
0.679,0.087253,
0.68,0.086924,
0.681,0.086924,
0.682,0.086924,
0.683,0.086595,
0.684,0.086595,
0.685,0.086924,
0.686,0.087253,
0.687,0.086924,
0.688,0.086924,
0.689,0.086924,
0.69,0.086924,
0.691,0.086924,
0.692,0.086595,
0.693,0.087253,
0.694,0.086924,
0.695,0.086595,
0.696,0.086595,
0.697,0.086924,
0.698,0.087253,
0.699,0.086595,
0.7,0.086595,
0.701,0.086595,
0.702,0.086595,
0.703,0.086266,
0.704,0.086924,
0.705,0.086924,
0.706,0.086924,
0.707,0.086595,
0.708,0.086595,
0.709,0.087253,
0.71,0.089554,
0.711,0.094158,
0.712,0.105994,
0.713,0.143805,
0.714,4.967195,
0.715,4.971469,
0.716,4.972456,
0.717,4.974757,
0.718,4.977716,
0.719,4.975744,
0.72,4.975415,
0.721,4.977388,
0.722,4.978374,
0.723,4.975086,
0.724,4.973771,
0.725,4.974757,
0.726,4.977388,
0.727,4.97673,
0.728,4.974757,
0.729,4.975415,
0.73,4.977059,
0.731,4.976401,
0.732,4.9741,
0.733,4.973442,
0.734,4.975415,
0.735,4.975744,
0.736,4.973771,
0.737,4.973442,
0.738,4.973113,
0.739,4.975086,
0.74,4.973771,
0.741,4.971141,
0.742,4.972127,
0.743,4.973771,
0.744,4.974757,
0.745,4.973771,
0.746,4.973771,
0.747,4.974428,
0.748,4.974428,
0.749,4.973442,
0.75,4.972127,
0.751,4.972785,
0.752,4.975744,
0.753,4.975744,
0.754,4.973771,
0.755,4.975415,
0.756,4.97673,
0.757,4.978703,
0.758,4.97673,
0.759,4.975744,
0.76,4.977716,
0.761,4.979689,
0.762,4.979032,
0.763,4.977716,
0.764,4.978045,
0.765,4.977716,
0.766,4.977716,
0.767,4.975415,
0.768,4.976401,
0.769,4.97936,
0.77,4.97936,
0.771,4.978045,
0.772,4.977059,
0.773,4.97673,
0.774,4.977716,
0.775,4.974757,
0.776,4.975415,
0.777,4.97673,
0.778,4.977059,
0.779,4.976401,
0.78,4.975086,
0.781,4.974428,
0.782,4.976401,
0.783,4.975415,
0.784,4.973771,
0.785,4.975086,
0.786,4.977716,
0.787,4.97673,
0.788,4.975086,
0.789,4.974428,
0.79,4.975744,
0.791,4.977059,
0.792,4.975415,
0.793,4.975415,
0.794,4.978045,
0.795,4.980347,
0.796,4.978374,
0.797,4.976401,
0.798,4.976401,
0.799,4.977388,
0.8,4.979032,
0.801,4.97673,
0.802,4.977059,
0.803,4.978703,
0.804,4.979032,
0.805,4.976401,
0.806,4.975086,
0.807,4.975415,
0.808,4.977059,
0.809,4.977388,
0.81,4.974757,
0.811,4.975744,
0.812,4.977388,
0.813,4.976401,
0.814,4.973113,
0.815,4.973113,
0.816,4.975415,
0.817,4.974757,
0.818,4.972456,
0.819,4.972127,
0.82,4.975415,
0.821,4.975744,
0.822,4.972785,
0.823,4.971469,
0.824,4.972785,
0.825,4.974757,
0.826,4.973771,
0.827,4.971469,
0.828,4.972456,
0.829,4.976401,
0.83,4.975415,
0.831,4.973442,
0.832,4.972785,
0.833,4.975744,
0.834,4.97673,
0.835,4.974757,
0.836,4.975086,
0.837,4.976072,
0.838,4.977716,
0.839,4.976401,
0.84,4.973442,
0.841,4.974428,
0.842,4.977388,
0.843,4.976072,
0.844,4.975415,
0.845,4.975415,
0.846,4.977716,
0.847,4.978374,
0.848,4.9741,
0.849,4.9741,
0.85,4.975744,
0.851,4.975415,
0.852,4.974428,
0.853,4.973442,
0.854,4.975744,
0.855,4.978374,
0.856,4.975086,
0.857,4.973113,
0.858,4.974428,
0.859,4.977059,
0.86,4.975744,
0.861,4.973771,
0.862,4.975415,
0.863,4.977059,
0.864,4.977059,
0.865,4.974757,
0.866,4.973113,
0.867,4.976072,
0.868,4.978045,
0.869,4.976072,
0.87,4.976401,
0.871,4.977716,
0.872,4.979689,
0.873,4.979032,
0.874,4.976072,
0.875,4.977059,
0.876,4.980018,
0.877,4.97936,
0.878,4.978045,
0.879,4.977059,
0.88,4.97936,
0.881,4.97936,
0.882,4.977059,
0.883,4.97673,
0.884,4.977716,
0.885,4.979689,
0.886,4.977716,
0.887,4.976401,
0.888,4.977716,
0.889,4.978374,
0.89,4.975086,
0.891,4.9741,
0.892,4.974757,
0.893,4.977059,
0.894,4.976072,
0.895,4.975086,
0.896,4.975415,
0.897,4.97673,
0.898,4.976401,
0.899,4.973771,
0.9,4.973113,
0.901,4.976401,
0.902,4.977388,
0.903,4.975086,
0.904,4.974428,
0.905,4.975744,
0.906,4.977716,
0.907,4.976401,
0.908,4.974757,
0.909,4.976401,
0.91,4.977388,
0.911,4.97936,
0.912,4.977059,
0.913,4.975086,
0.914,4.976072,
0.915,4.976401,
0.916,4.976401,
0.917,4.975086,
0.918,4.975086,
0.919,4.978374,
0.92,4.977716,
0.921,4.974757,
0.922,4.975415,
0.923,4.975744,
0.924,4.976072,
0.925,4.9741,
0.926,4.972785,
0.927,4.975086,
0.928,4.975744,
0.929,4.973113,
0.93,4.972456,
0.931,4.973442,
0.932,4.973771,
0.933,4.972456,
0.934,4.971141,
0.935,4.972785,
0.936,4.975086,
0.937,4.974428,
0.938,4.973442,
0.939,4.972456,
0.94,4.974428,
0.941,4.973771,
0.942,4.970812,
0.943,4.972456,
0.944,4.974428,
0.945,4.976401,
0.946,4.976401,
0.947,4.9741,
0.948,4.975086,
0.949,4.97673,
0.95,4.975415,
0.951,4.975744,
0.952,4.975744,
0.953,4.978045,
0.954,4.978703,
0.955,4.977059,
0.956,4.975744,
0.957,4.975415,
0.958,4.977716,
0.959,4.97673,
0.96,4.975415,
0.961,4.977388,
0.962,4.97936,
0.963,4.979032,
0.964,4.975744,
0.965,4.974757,
0.966,4.976072,
0.967,4.977059,
0.968,4.9741,
0.969,4.9741,
0.97,4.97673,
0.971,4.977388,
0.972,4.975415,
0.973,4.973113,
0.974,4.976072,
0.975,4.977388,
0.976,4.975415,
0.977,4.974428,
0.978,4.975415,
0.979,4.978374,
0.98,4.978045,
0.981,4.9741,
0.982,4.974428,
0.983,4.97673,
0.984,4.978374,
0.985,4.977059,
0.986,4.976072,
0.987,4.978374,
0.988,4.979689,
0.989,4.977388,
0.99,4.976072,
0.991,4.976401,
0.992,4.977388,
0.993,4.977716,
0.994,4.975086,
0.995,4.976401,
0.996,4.97673,
0.997,4.977716,
0.998,4.9741,
0.999,4.9741,
1,4.976401,
1.001,4.97673,
1.002,4.974757,
1.003,4.9741,
1.004,4.976401,
1.005,4.976072,
1.006,4.973771,
1.007,4.971141,
1.008,4.971798,
1.009,4.975086,
1.01,4.973771,
1.011,4.972785,
1.012,4.972785,
1.013,4.974428,
1.014,4.975086,
1.015,4.970483,
1.016,4.971469,
1.017,4.973771,
1.018,4.976072,
1.019,4.972785,
1.02,4.972456,
1.021,4.974757,
1.022,4.976401,
1.023,4.9741,
1.024,4.973771,
1.025,4.974428,
1.026,4.977059,
1.027,4.976072,
1.028,4.974757,
1.029,4.976401,
1.03,4.978374,
1.031,4.97673,
1.032,4.973771,
1.033,4.974428,
1.034,4.976401,
1.035,4.976401,
1.036,4.974757,
1.037,4.975744,
1.038,4.976401,
1.039,4.977059,
1.04,4.974428,
1.041,4.971798,
1.042,4.973113,
1.043,4.975744,
1.044,4.9741,
1.045,4.972785,
1.046,4.971798,
1.047,4.974757,
1.048,4.974428,
1.049,4.971469,
1.05,4.971469,
1.051,4.973442,
1.052,4.974757,
1.053,4.974757,
1.054,4.971469,
1.055,4.9741,
1.056,4.975086,
1.057,4.973771,
1.058,4.972127,
1.059,4.973113,
1.06,4.975415,
1.061,4.977059,
1.062,4.975415,
1.063,4.975415,
1.064,4.977388,
1.065,4.97673,
1.066,4.975086,
1.067,4.974428,
1.068,4.977059,
1.069,4.977388,
1.07,4.97673,
1.071,4.975744,
1.072,4.97673,
1.073,4.978045,
1.074,4.977059,
1.075,4.9741,
1.076,4.976401,
1.077,4.978045,
1.078,4.978045,
1.079,4.975415,
1.08,4.974428,
1.081,4.975415,
1.082,4.975086,
1.083,4.9741,
1.084,4.972127,
1.085,4.9741,
1.086,4.976072,
1.087,4.975086,
1.088,4.975415,
1.089,4.974757,
1.09,4.975415,
1.091,4.976401,
1.092,4.975086,
1.093,4.974757,
1.094,4.976401,
1.095,4.977388,
1.096,4.977716,
1.097,4.975744,
1.098,4.976401,
1.099,4.978374,
1.1,4.977059,
1.101,4.977059,
1.102,4.978703,
1.103,4.980018,
1.104,4.980347,
1.105,4.977388,
1.106,0.154984,
1.107,0.102706,
1.108,0.091856,
1.109,0.088239,
1.11,0.087253,
1.111,0.086924,
1.112,0.086924,
1.113,0.086924,
1.114,0.086595,
1.115,0.086924,
1.116,0.086924,
1.117,0.087253,
1.118,0.087253,
1.119,0.086924,
1.12,0.086924,
1.121,0.086595,
1.122,0.086924,
1.123,0.086595,
1.124,0.086924,
1.125,0.086924,
1.126,0.086924,
1.127,0.086924,
1.128,0.086924,
1.129,0.086266,
1.13,0.087253,
1.131,0.086924,
1.132,0.086595,
1.133,0.087253,
1.134,0.086924,
1.135,0.086924,
1.136,0.086595,
1.137,0.086924,
1.138,0.086924,
1.139,0.087253,
1.14,0.086595,
1.141,0.086595,
1.142,0.086595,
1.143,0.086924,
1.144,0.087253,
1.145,0.086266,
1.146,0.086924,
1.147,0.086595,
1.148,0.086924,
1.149,0.086595,
1.15,0.086595,
1.151,0.086924,
1.152,0.086924,
1.153,0.086924,
1.154,0.086595,
1.155,0.087253,
1.156,0.086924,
1.157,0.087253,
1.158,0.086595,
1.159,0.087253,
1.16,0.087253,
1.161,0.086924,
1.162,0.086595,
1.163,0.086595,
1.164,0.086595,
1.165,0.086924,
1.166,0.086924,
1.167,0.086595,
1.168,0.086595,
1.169,0.086595,
1.17,0.086595,
1.171,0.087253,
1.172,0.086924,
1.173,0.086924,
1.174,0.087253,
1.175,0.086924,
1.176,0.089554,
1.177,0.106323,
1.178,3.84042,
1.179,4.975415,
1.18,4.977716,
1.181,4.977388,
1.182,4.976401,
1.183,4.975086,
1.184,4.974757,
1.185,4.977716,
1.186,4.976401,
1.187,4.976072,
1.188,4.97673,
1.189,4.978045,
1.19,4.977388,
1.191,4.975744,
1.192,4.974757,
1.193,4.977388,
1.194,4.977716,
1.195,4.976401,
1.196,4.975744,
1.197,4.974757,
1.198,4.976072,
1.199,4.975415,
1.2,4.973442,
1.201,4.974428,
1.202,4.975415,
1.203,4.977388,
1.204,4.974757,
1.205,4.975086,
1.206,4.976072,
1.207,4.977059,
1.208,4.975415,
1.209,4.973771,
1.21,4.974757,
1.211,4.977716,
1.212,4.978703,
1.213,4.977388,
1.214,4.976072,
1.215,4.977388,
1.216,4.980018,
1.217,4.977716,
1.218,4.977059,
1.219,4.977716,
1.22,4.980347,
1.221,4.980676,
1.222,4.978045,
1.223,4.977059,
1.224,4.980018,
1.225,4.979032,
1.226,4.977716,
1.227,4.978045,
1.228,4.978703,
1.229,4.979689,
1.23,4.978045,
1.231,4.975744,
1.232,4.976072,
1.233,4.97673,
1.234,4.976401,
1.235,4.974757,
1.236,4.975086,
1.237,4.977716,
1.238,4.977059,
1.239,4.974757,
1.24,4.973442,
1.241,4.975415,
1.242,4.976072,
1.243,4.975415,
1.244,4.974757,
1.245,4.975744,
1.246,4.977716,
1.247,4.977059,
1.248,4.974757,
1.249,4.9741,
1.25,4.977388,
1.251,4.978045,
1.252,4.977059,
1.253,4.97673,
1.254,4.978703,
1.255,4.980676,
1.256,4.978045,
1.257,4.975415,
1.258,4.977059,
1.259,4.979032,
1.26,4.979032,
1.261,4.976401,
1.262,4.977716,
1.263,4.978374,
1.264,4.977059,
1.265,4.975744,
1.266,4.976072,
1.267,4.977716,
1.268,4.979032,
1.269,4.975415,
1.27,4.975415,
1.271,4.976401,
1.272,4.97673,
1.273,4.973442,
1.274,4.972456,
1.275,4.973771,
1.276,4.975744,
1.277,4.974757,
1.278,4.973771,
1.279,4.973771,
1.28,4.975415,
1.281,4.975086,
1.282,4.972127,
1.283,4.972127,
1.284,4.975415,
1.285,4.975415,
1.286,4.9741,
1.287,4.973113,
1.288,4.974757,
1.289,4.97673,
1.29,4.974428,
1.291,4.973442,
1.292,4.974428,
1.293,4.976401,
1.294,4.977716,
1.295,4.976072,
1.296,4.975415,
1.297,4.978374,
1.298,4.97673,
1.299,4.974757,
1.3,4.974757,
1.301,4.975744,
1.302,4.977388,
1.303,4.976401,
1.304,4.975415,
1.305,4.976072,
1.306,4.976401,
1.307,4.974757,
1.308,4.973442,
1.309,4.973113,
1.31,4.975086,
1.311,4.975415,
1.312,4.972785,
1.313,4.973113,
1.314,4.973442,
1.315,4.9741,
1.316,4.973113,
1.317,4.970812,
1.318,4.973442,
1.319,4.974428,
1.32,4.974757,
1.321,4.973771,
1.322,4.972785,
1.323,4.974428,
1.324,4.975086,
1.325,4.973442,
1.326,4.972785,
1.327,4.974757,
1.328,4.977059,
1.329,4.978045,
1.33,4.976072,
1.331,4.975415,
1.332,4.976401,
1.333,4.977716,
1.334,4.976401,
1.335,4.975744,
1.336,4.978045,
1.337,4.978703,
1.338,4.978374,
1.339,4.976401,
1.34,4.975744,
1.341,4.978045,
1.342,4.978703,
1.343,4.976401,
1.344,4.977059,
1.345,4.978374,
1.346,4.978374,
1.347,4.976401,
1.348,4.973771,
1.349,4.97673,
1.35,4.97673,
1.351,4.974757,
1.352,4.974757,
1.353,4.97673,
1.354,4.978045,
1.355,4.975744,
1.356,4.973771,
1.357,4.975415,
1.358,4.976401,
1.359,4.975744,
1.36,4.9741,
1.361,4.976072,
1.362,4.978045,
1.363,4.976072,
1.364,4.974428,
1.365,4.974428,
1.366,4.97673,
1.367,4.979032,
1.368,4.97673,
1.369,4.97673,
1.37,4.979689,
1.371,4.979032,
1.372,4.978045,
1.373,4.976072,
1.374,4.976072,
1.375,4.978703,
1.376,4.978374,
1.377,4.976401,
1.378,4.976401,
1.379,4.977716,
1.38,4.978703,
1.381,4.975744,
1.382,4.973771,
1.383,4.975415,
1.384,4.977388,
1.385,4.975086,
1.386,4.973442,
1.387,4.974428,
1.388,4.976072,
1.389,4.974428,
1.39,4.971141,
1.391,4.972127,
1.392,4.973442,
1.393,4.976072,
1.394,4.973771,
1.395,4.972456,
1.396,4.975415,
1.397,4.976072,
1.398,4.973113,
1.399,4.971469,
1.4,4.972785,
1.401,4.975086,
1.402,4.974428,
1.403,4.973113,
1.404,4.974757,
1.405,4.977059,
1.406,4.976401,
1.407,4.9741,
1.408,4.973771,
1.409,4.976401,
1.41,4.97673,
1.411,4.976401,
1.412,4.975415,
1.413,4.97673,
1.414,4.978045,
1.415,4.975744,
1.416,4.973771,
1.417,4.976401,
1.418,4.977388,
1.419,4.976072,
1.42,4.975086,
1.421,4.975086,
1.422,4.977059,
1.423,4.975744,
1.424,4.972456,
1.425,4.973442,
1.426,4.974428,
1.427,4.975744,
1.428,4.973771,
1.429,4.973113,
1.43,4.976072,
1.431,4.975415,
1.432,4.973771,
1.433,4.971469,
1.434,4.973113,
1.435,4.976401,
1.436,4.974757,
1.437,4.972127,
1.438,4.9741,
1.439,4.975086,
1.44,4.975086,
1.441,4.9741,
1.442,4.972785,
1.443,4.97673,
1.444,4.978045,
1.445,4.976072,
1.446,4.976072,
1.447,4.978045,
1.448,4.977388,
1.449,4.977059,
1.45,4.975415,
1.451,4.977059,
1.452,4.978374,
1.453,4.97673,
1.454,4.975744,
1.455,4.977059,
1.456,4.979032,
1.457,4.97673,
1.458,4.976072,
1.459,4.975415,
1.46,4.977059,
1.461,4.978374,
1.462,4.976072,
1.463,4.975415,
1.464,4.975744,
1.465,4.975415,
1.466,4.975744,
1.467,4.973113,
1.468,4.974428,
1.469,4.977059,
1.47,4.976072,
1.471,4.975086,
1.472,4.975744,
1.473,4.976401,
1.474,4.977388,
1.475,4.974757,
1.476,4.974757,
1.477,4.977388,
1.478,4.977716,
1.479,4.976401,
1.48,4.97673,
1.481,4.978045,
1.482,4.978703,
1.483,4.977059,
1.484,4.976401,
1.485,4.97936,
1.486,4.979689,
1.487,4.979032,
1.488,4.978045,
1.489,4.977716,
1.49,4.978703,
1.491,4.978374,
1.492,4.976072,
1.493,4.977059,
1.494,4.980347,
1.495,4.980347,
1.496,4.977716,
1.497,4.977059,
1.498,4.977388,
1.499,4.979032,
1.5,4.976401,
1.501,4.975086,
1.502,4.97673,
1.503,4.978045,
1.504,4.976401,
1.505,4.975744,
1.506,4.976072,
1.507,4.975744,
1.508,4.976072,
1.509,4.974428,
1.51,4.976072,
1.511,4.977388,
1.512,4.97673,
1.513,4.975744,
1.514,4.975086,
1.515,4.975415,
1.516,4.977059,
1.517,4.974757,
1.518,4.975744,
1.519,4.978374,
1.52,4.979689,
1.521,4.978045,
1.522,4.97673,
1.523,4.977059,
1.524,4.980018,
1.525,4.977716,
1.526,4.976401,
1.527,4.976072,
1.528,4.979689,
1.529,4.980347,
1.53,4.974757,
1.531,0.134599,
1.532,0.095144,
1.533,0.087582,
1.534,0.086924,
1.535,0.087253,
1.536,0.086595,
1.537,0.086924,
1.538,0.086266,
1.539,0.086924,
1.54,0.086924,
1.541,0.086595,
1.542,0.086924,
1.543,0.086924,
1.544,0.087253,
1.545,0.086595,
1.546,0.086595,
1.547,0.086595,
1.548,0.086595,
1.549,0.086924,
1.55,0.086595,
1.551,0.086924,
1.552,0.086924,
1.553,0.086595,
1.554,0.086924,
1.555,0.087253,
1.556,0.086595,
1.557,0.087253,
1.558,0.086595,
1.559,0.087253,
1.56,0.086595,
1.561,0.086595,
1.562,0.086266,
1.563,0.086595,
1.564,0.086595,
1.565,0.086595,
1.566,0.087253,
1.567,0.087253,
1.568,0.086924,
1.569,0.086924,
1.57,0.086924,
1.571,0.087253,
1.572,0.086595,
1.573,0.086595,
1.574,0.086266,
1.575,0.087253,
1.576,0.086595,
1.577,0.086266,
1.578,0.086924,
1.579,0.086924,
1.58,0.086595,
1.581,0.086924,
1.582,0.086266,
1.583,0.086924,
1.584,0.086924,
1.585,0.087253,
1.586,0.087253,
1.587,0.086924,
1.588,0.086924,
1.589,0.086595,
1.59,0.086595,
1.591,0.086595,
1.592,0.086924,
1.593,0.086595,
1.594,0.086924,
1.595,0.086924,
1.596,0.087253,
1.597,0.086595,
1.598,0.086595,
1.599,0.088568,
1.6,0.092842,
1.601,0.10172,
1.602,0.123749,
1.603,4.662075,
1.604,4.977388,
1.605,4.978703,
1.606,4.978703,
1.607,4.97936,
1.608,4.97673,
1.609,4.976401,
1.61,4.978374,
1.611,4.97936,
1.612,4.978374,
1.613,4.976072,
1.614,4.976072,
1.615,4.97673,
1.616,4.975415,
1.617,4.973113,
1.618,4.976401,
1.619,4.975744,
1.62,4.974428,
1.621,4.974428,
1.622,4.975415,
1.623,4.975744,
1.624,4.975415,
1.625,4.973113,
1.626,4.9741,
1.627,4.976072,
1.628,4.977059,
1.629,4.974428,
1.63,4.973771,
1.631,4.976401,
1.632,4.97673,
1.633,4.976072,
1.634,4.974428,
1.635,4.97673,
1.636,4.980018,
1.637,4.977716,
1.638,4.976072,
1.639,4.976401,
1.64,4.977388,
1.641,4.97673,
1.642,4.975744,
1.643,4.975415,
1.644,4.977388,
1.645,4.977716,
1.646,4.975415,
1.647,4.975086,
1.648,4.975744,
1.649,4.976401,
1.65,4.973771,
1.651,4.973771,
1.652,4.975744,
1.653,4.976072,
1.654,4.9741,
1.655,4.972785,
1.656,4.974757,
1.657,4.975086,
1.658,4.972456,
1.659,4.971469,
1.66,4.973113,
1.661,4.974428,
1.662,4.975086,
1.663,4.972456,
1.664,4.972456,
1.665,4.9741,
1.666,4.974428,
1.667,4.972785,
1.668,4.972456,
1.669,4.9741,
1.67,4.975415,
1.671,4.975415,
1.672,4.973771,
1.673,4.976072,
1.674,4.976072,
1.675,4.976072,
1.676,4.975086,
1.677,4.975415,
1.678,4.977388,
1.679,4.977716,
1.68,4.976401,
1.681,4.973771,
1.682,4.975086,
1.683,4.977716,
1.684,4.974757,
1.685,4.973771,
1.686,4.97673,
1.687,4.977059,
1.688,4.977388,
1.689,4.974428,
1.69,4.972127,
1.691,4.975086,
1.692,4.976072,
1.693,4.973113,
1.694,4.973442,
1.695,4.974757,
1.696,4.97673,
1.697,4.976401,
1.698,4.972127,
1.699,4.973771,
1.7,4.974757,
1.701,4.973113,
1.702,4.973113,
1.703,4.975744,
1.704,4.976401,
1.705,4.975744,
1.706,4.973442,
1.707,4.975086,
1.708,4.97673,
1.709,4.976401,
1.71,4.975744,
1.711,4.97673,
1.712,4.97936,
1.713,4.980347,
1.714,4.977059,
1.715,4.97673,
1.716,4.977716,
1.717,4.97936,
1.718,4.97673,
1.719,4.976072,
1.72,4.979689,
1.721,4.980676,
1.722,4.978045,
1.723,4.975744,
1.724,4.978045,
1.725,4.979689,
1.726,4.978703,
1.727,4.976401,
1.728,4.977388,
1.729,4.979032,
1.73,4.977388,
1.731,4.973771,
1.732,4.974428,
1.733,4.976072,
1.734,4.976072,
1.735,4.975415,
1.736,4.975744,
1.737,4.977716,
1.738,4.978374,
1.739,4.974757,
1.74,4.973771,
1.741,4.976072,
1.742,4.97673,
1.743,4.975744,
1.744,4.974428,
1.745,4.97673,
1.746,4.979032,
1.747,4.977059,
1.748,4.975415,
1.749,4.975744,
1.75,4.979032,
1.751,4.979689,
1.752,4.976401,
1.753,4.977059,
1.754,4.979689,
1.755,4.980347,
1.756,4.977716,
1.757,4.974428,
1.758,4.977388,
1.759,4.978703,
1.76,4.978045,
1.761,4.977059,
1.762,4.977059,
1.763,4.978045,
1.764,4.978045,
1.765,4.973771,
1.766,4.975086,
1.767,4.977716,
1.768,4.97673,
1.769,4.974757,
1.77,4.9741,
1.771,4.975415,
1.772,4.976401,
1.773,4.973442,
1.774,4.972456,
1.775,4.9741,
1.776,4.975086,
1.777,4.975086,
1.778,4.973113,
1.779,4.975086,
1.78,4.97673,
1.781,4.974757,
1.782,4.972456,
1.783,4.972456,
1.784,4.975415,
1.785,4.977388,
1.786,4.975415,
1.787,4.975415,
1.788,4.976401,
1.789,4.977716,
1.79,4.976401,
1.791,4.973771,
1.792,4.974428,
1.793,4.977716,
1.794,4.977388,
1.795,4.976401,
1.796,4.975415,
1.797,4.977388,
1.798,4.97673,
1.799,4.974757,
1.8,4.974428,
1.801,4.975086,
1.802,4.977059,
1.803,4.975086,
1.804,4.973442,
1.805,4.975415,
1.806,4.975415,
1.807,4.973442,
1.808,4.971141,
1.809,4.972456,
1.81,4.975086,
1.811,4.974428,
1.812,4.972127,
1.813,4.973442,
1.814,4.974757,
1.815,4.973771,
1.816,4.972127,
1.817,4.971141,
1.818,4.974428,
1.819,4.974428,
1.82,4.972785,
1.821,4.973113,
1.822,4.975744,
1.823,4.975086,
1.824,4.974428,
1.825,4.973442,
1.826,4.975086,
1.827,4.978374,
1.828,4.976401,
1.829,4.975744,
1.83,4.975744,
1.831,4.977059,
1.832,4.976072,
1.833,4.9741,
1.834,4.975086,
1.835,4.977059,
1.836,4.97673,
1.837,4.975744,
1.838,4.975415,
1.839,4.976401,
1.84,4.977388,
1.841,4.974757,
1.842,4.9741,
1.843,4.975415,
1.844,4.976401,
1.845,4.976072,
1.846,4.9741,
1.847,4.974428,
1.848,4.974428,
1.849,4.975086,
1.85,4.973442,
1.851,4.972456,
1.852,4.975744,
1.853,4.976401,
1.854,4.974757,
1.855,4.975086,
1.856,4.975415,
1.857,4.977388,
1.858,4.975744,
1.859,4.973771,
1.86,4.976072,
1.861,4.978374,
1.862,4.978045,
1.863,4.977059,
1.864,4.977388,
1.865,4.978374,
1.866,4.97936,
1.867,4.976401,
1.868,4.977059,
1.869,4.97936,
1.87,4.980018,
1.871,4.977388,
1.872,4.977716,
1.873,4.977716,
1.874,4.979032,
1.875,4.976401,
1.876,4.976401,
1.877,4.977059,
1.878,4.980018,
1.879,4.979032,
1.88,4.975744,
1.881,4.975086,
1.882,4.975744,
1.883,4.97673,
1.884,4.973771,
1.885,4.972785,
1.886,4.976072,
1.887,4.975744,
1.888,4.974757,
1.889,4.972785,
1.89,4.972456,
1.891,4.974757,
1.892,4.973771,
1.893,4.972456,
1.894,4.972127,
1.895,4.975086,
1.896,4.975415,
1.897,4.973771,
1.898,4.971141,
1.899,4.973771,
1.9,4.976072,
1.901,4.974428,
1.902,4.974428,
1.903,4.976072,
1.904,4.977716,
1.905,4.97673,
1.906,4.973771,
1.907,4.975744,
1.908,4.977059,
1.909,4.975415,
1.91,4.975086,
1.911,4.974757,
1.912,4.978045,
1.913,4.978045,
1.914,4.9741,
1.915,4.972785,
1.916,4.976072,
1.917,4.975744,
1.918,4.9741,
1.919,4.9741,
1.92,4.976072,
1.921,4.976072,
1.922,4.973113,
1.923,4.971141,
1.924,4.972785,
1.925,4.9741,
1.926,4.972785,
1.927,4.971798,
1.928,4.973771,
1.929,4.975415,
1.93,4.974757,
1.931,4.971798,
1.932,4.971141,
1.933,4.9741,
1.934,4.974757,
1.935,4.971798,
1.936,4.972785,
1.937,4.975744,
1.938,4.977059,
1.939,4.975415,
1.94,4.973771,
1.941,4.973771,
1.942,4.978045,
1.943,4.978045,
1.944,4.975744,
1.945,4.97673,
1.946,4.978703,
1.947,4.979689,
1.948,4.974428,
1.949,4.9741,
1.95,4.977388,
1.951,4.978374,
1.952,4.976401,
1.953,4.975415,
1.954,4.977716,
1.955,4.979689,
1.956,4.977388,
1.957,4.975086,
1.958,4.974757,
1.959,4.977388,
1.96,4.977388,
1.961,4.975415,
1.962,4.974757,
1.963,4.97673,
1.964,4.977388,
1.965,4.975744,
1.966,4.973442,
1.967,4.975415,
1.968,4.976401,
1.969,4.977716,
1.97,4.975086,
1.971,4.974757,
1.972,4.977388,
1.973,4.977388,
1.974,4.974428,
1.975,4.974428,
1.976,4.976072,
1.977,4.978045,
1.978,4.978045,
1.979,4.975744,
1.98,4.97673,
1.981,4.978045,
1.982,4.97673,
1.983,4.975415,
1.984,4.975086,
1.985,4.978045,
1.986,4.978703,
1.987,4.976072,
1.988,4.975744,
1.989,4.977388,
1.99,4.977388,
1.991,4.976072,
1.992,4.973442,
1.993,4.975415,
1.994,4.957989,
1.995,0.122434,
1.996,0.097117,
1.997,0.090541,
1.998,0.087253,
1.999,0.086924,
2,0.086266,
2.001,0.086595,
2.002,0.086924,
2.003,0.086595,
2.004,0.086595,
2.005,0.086266,
2.006,0.087253,
2.007,0.086924,
2.008,0.086595,
2.009,0.087582,
2.01,0.087253,
2.011,0.087253,
2.012,0.086924,
2.013,0.087253,
2.014,0.086924,
2.015,0.086924,
2.016,0.086266,
2.017,0.086266,
2.018,0.087582,
2.019,0.086924,
2.02,0.086595,
2.021,0.086595,
2.022,0.086595,
2.023,0.087253,
2.024,0.086924,
2.025,0.086924,
2.026,0.087253,
2.027,0.086595,
2.028,0.087253,
2.029,0.086924,
2.03,0.086924,
2.031,0.086924,
2.032,0.086924,
2.033,0.086924,
2.034,0.086595,
2.035,0.087253,
2.036,0.086266,
2.037,0.087253,
2.038,0.086595,
2.039,0.086595,
2.04,0.087253,
2.041,0.086266,
2.042,0.086924,
2.043,0.086924,
2.044,0.086595,
2.045,0.086595,
2.046,0.086924,
2.047,0.087253,
2.048,0.087253,
2.049,0.086924,
2.05,0.086924,
2.051,0.086266,
2.052,0.086924,
2.053,0.086924,
2.054,0.086924,
2.055,0.086924,
2.056,0.086595,
2.057,0.086595,
2.058,0.087253,
2.059,0.086595,
2.06,0.086924,
2.061,0.086595,
2.062,0.086266,
2.063,0.086595,
2.064,0.086595,
2.065,0.086924,
2.066,0.091856,
2.067,0.116515,
2.068,4.93596,
2.069,4.976401,
2.07,4.975086,
2.071,4.978703,
2.072,4.978045,
2.073,4.975086,
2.074,4.973771,
2.075,4.975086,
2.076,4.97673,
2.077,4.97673,
2.078,4.974428,
2.079,4.975744,
2.08,4.977716,
2.081,4.976072,
2.082,4.974428,
2.083,4.974757,
2.084,4.977059,
2.085,4.976401,
2.086,4.975086,
2.087,4.975415,
2.088,4.977716,
2.089,4.977716,
2.09,4.975086,
2.091,4.974428,
2.092,4.977716,
2.093,4.97936,
2.094,4.979689,
2.095,4.978045,
2.096,4.977716,
2.097,4.980676,
2.098,4.978703,
2.099,4.97673,
2.1,4.976401,
2.101,4.978374,
2.102,4.980676,
2.103,4.978374,
2.104,4.977388,
2.105,4.978045,
2.106,4.978374,
2.107,4.978045,
2.108,4.975744,
2.109,4.975086,
2.11,4.977388,
2.111,4.977059,
2.112,4.976401,
2.113,4.975086,
2.114,4.975744,
2.115,4.976401,
2.116,4.974428,
2.117,4.9741,
2.118,4.976072,
2.119,4.977059,
2.12,4.976401,
2.121,4.9741,
2.122,4.977716,
2.123,4.97673,
2.124,4.975086,
2.125,4.973771,
2.126,4.976072,
2.127,4.977059,
2.128,4.977059,
2.129,4.975415,
2.13,4.977059,
2.131,4.97936,
2.132,4.977388,
2.133,4.976401,
2.134,4.977059,
2.135,4.980018,
2.136,4.980676,
2.137,4.977716,
2.138,4.97673,
2.139,4.978374,
2.14,4.978374,
2.141,4.977388,
2.142,4.976072,
2.143,4.976072,
2.144,4.978374,
2.145,4.978374,
2.146,4.975744,
2.147,4.974757,
2.148,4.975086,
2.149,4.976072,
2.15,4.973442,
2.151,4.973442,
2.152,4.975744,
2.153,4.975744,
2.154,4.974757,
2.155,4.972785,
2.156,4.9741,
2.157,4.975086,
2.158,4.973771,
2.159,4.972456,
2.16,4.972785,
2.161,4.974757,
2.162,4.975744,
2.163,4.973113,
2.164,4.972456,
2.165,4.973113,
2.166,4.975415,
2.167,4.975086,
2.168,4.973442,
2.169,4.975086,
2.17,4.977716,
2.171,4.977388,
2.172,4.975744,
2.173,4.973113,
2.174,4.976401,
2.175,4.977388,
2.176,4.975744,
2.177,4.974757,
2.178,4.976072,
2.179,4.977716,
2.18,4.978374,
2.181,4.973771,
2.182,4.975086,
2.183,4.977388,
2.184,4.975744,
2.185,4.974757,
2.186,4.9741,
2.187,4.97673,
2.188,4.977059,
2.189,4.9741,
2.19,4.971469,
2.191,4.9741,
2.192,4.975086,
2.193,4.974428,
2.194,4.973113,
2.195,4.975415,
2.196,4.977059,
2.197,4.975415,
2.198,4.972785,
2.199,4.973442,
2.2,4.975415,
2.201,4.975744,
2.202,4.972785,
2.203,4.974428,
2.204,4.97673,
2.205,4.97673,
2.206,4.975086,
2.207,4.975744,
2.208,4.977388,
2.209,4.979689,
2.21,4.977388,
2.211,4.977388,
2.212,4.97936,
2.213,4.981004,
2.214,4.978374,
2.215,4.975744,
2.216,4.976401,
2.217,4.979032,
2.218,4.978045,
2.219,4.976072,
2.22,4.977388,
2.221,4.981004,
2.222,4.979032,
2.223,4.975086,
2.224,4.975744,
2.225,4.978045,
2.226,4.977716,
2.227,4.975744,
2.228,4.974757,
2.229,4.977388,
2.23,4.978374,
2.231,4.974428,
2.232,4.973113,
2.233,4.975415,
2.234,4.97673,
2.235,4.976401,
2.236,4.975415,
2.237,4.977059,
2.238,4.977716,
2.239,4.977388,
2.24,4.974428,
2.241,4.974428,
2.242,4.977059,
2.243,4.978703,
2.244,4.976401,
2.245,4.977059,
2.246,4.977388,
2.247,4.979689,
2.248,4.977059,
2.249,4.976072,
2.25,4.977716,
2.251,4.979032,
2.252,4.979032,
2.253,4.977716,
2.254,4.977716,
2.255,4.980347,
2.256,4.977716,
2.257,4.97673,
2.258,4.976401,
2.259,4.977716,
2.26,4.979689,
2.261,4.977388,
2.262,4.974757,
2.263,4.975744,
2.264,4.977059,
2.265,4.975744,
2.266,4.973442,
2.267,4.972127,
2.268,4.976401,
2.269,4.975415,
2.27,4.974428,
2.271,4.972456,
2.272,4.974428,
2.273,4.9741,
2.274,4.972785,
2.275,4.971798,
2.276,4.9741,
2.277,4.975086,
2.278,4.973442,
2.279,4.973442,
2.28,4.975415,
2.281,4.975086,
2.282,4.973442,
2.283,4.973442,
2.284,4.975744,
2.285,4.977388,
2.286,4.976401,
2.287,4.975415,
2.288,4.977059,
2.289,4.977716,
2.29,4.976072,
2.291,4.974757,
2.292,4.974428,
2.293,4.976401,
2.294,4.978374,
2.295,4.97673,
2.296,4.974757,
2.297,4.976072,
2.298,4.976401,
2.299,4.976401,
2.3,4.973113,
2.301,4.9741,
2.302,4.975415,
2.303,4.975415,
2.304,4.972785,
2.305,4.972785,
2.306,4.973442,
2.307,4.974428,
2.308,4.972785,
2.309,4.971469,
2.31,4.973113,
2.311,4.9741,
2.312,4.975086,
2.313,4.973442,
2.314,4.973113,
2.315,4.9741,
2.316,4.973771,
2.317,4.972456,
2.318,4.972127,
2.319,4.975086,
2.32,4.97673,
2.321,4.975415,
2.322,4.975086,
2.323,4.977716,
2.324,4.977059,
2.325,4.975086,
2.326,4.974757,
2.327,4.977716,
2.328,4.978703,
2.329,4.977388,
2.33,4.976072,
2.331,4.975415,
2.332,4.97673,
2.333,4.977388,
2.334,4.975086,
2.335,4.975415,
2.336,4.978374,
2.337,4.976401,
2.338,4.977716,
2.339,4.974428,
2.34,4.974757,
2.341,4.97673,
2.342,4.975415,
2.343,4.973771,
2.344,4.975086,
2.345,4.976401,
2.346,4.978703,
2.347,4.975744,
2.348,4.973113,
2.349,4.975415,
2.35,4.976401,
2.351,4.974428,
2.352,4.9741,
2.353,4.976072,
2.354,4.977388,
2.355,4.977388,
2.356,4.973771,
2.357,4.974428,
2.358,4.977716,
2.359,4.977716,
2.36,4.977059,
2.361,4.977388,
2.362,4.980018,
2.363,4.981004,
2.364,4.978045,
2.365,4.976401,
2.366,4.978374,
2.367,4.979689,
2.368,4.978703,
2.369,4.977388,
2.37,4.978703,
2.371,4.980347,
2.372,4.980347,
2.373,4.976401,
2.374,4.97673,
2.375,4.978374,
2.376,4.979032,
2.377,4.976072,
2.378,4.976072,
2.379,4.977716,
2.38,4.97673,
2.381,4.974428,
2.382,4.972456,
2.383,4.975086,
2.384,4.976401,
2.385,4.9741,
2.386,4.9741,
2.387,4.976401,
2.388,4.97673,
2.389,4.975086,
2.39,4.973113,
2.391,4.973442,
2.392,4.974757,
2.393,4.976072,
2.394,4.974428,
2.395,4.973113,
2.396,4.975086,
2.397,4.977059,
2.398,4.976072,
2.399,4.974428,
2.4,4.975744,
2.401,4.978703,
2.402,4.978374,
2.403,4.975415,
2.404,4.976072,
2.405,4.978045,
2.406,4.97673,
2.407,4.975086,
2.408,4.973771,
2.409,4.976072,
2.41,4.97673,
2.411,4.97673,
2.412,4.975086,
2.413,4.974757,
2.414,4.976401,
2.415,4.974428,
2.416,4.972127,
2.417,4.972456,
2.418,4.974757,
2.419,3.24925,
2.42,0.105336,
2.421,0.089883,
2.422,0.086924,
2.423,0.087253,
2.424,0.087582,
2.425,0.086595,
2.426,0.087253,
2.427,0.086924,
2.428,0.086595,
2.429,0.086595,
2.43,0.086595,
2.431,0.086595,
2.432,0.086595,
2.433,0.086924,
2.434,0.086924,
2.435,0.086924,
2.436,0.087253,
2.437,0.086595,
2.438,0.086595,
2.439,0.087253,
2.44,0.086924,
2.441,0.087253,
2.442,0.086595,
2.443,0.086924,
2.444,0.087253,
2.445,0.086595,
2.446,0.086595,
2.447,0.086924,
2.448,0.086924,
2.449,0.087253,
2.45,0.087253,
2.451,0.086924,
2.452,0.086595,
2.453,0.086595,
2.454,0.086924,
2.455,0.087253,
2.456,0.087253,
2.457,0.086924,
2.458,0.087253,
2.459,0.086924,
2.46,0.086595,
2.461,0.086924,
2.462,0.086924,
2.463,0.086924,
2.464,0.087253,
2.465,0.086924,
2.466,0.087253,
2.467,0.086595,
2.468,0.086924,
2.469,0.086595,
2.47,0.086595,
2.471,0.087582,
2.472,0.087253,
2.473,0.087253,
2.474,0.086595,
2.475,0.086924,
2.476,0.086924,
2.477,0.086924,
2.478,0.087253,
2.479,0.087253,
2.48,0.086266,
2.481,0.086924,
2.482,0.087253,
2.483,0.086595,
2.484,0.086924,
2.485,0.086595,
2.486,0.086595,
2.487,0.086924,
2.488,0.087582,
2.489,0.09087,
2.49,0.097445,
2.491,0.112899,
2.492,0.204303,
2.493,4.975086,
2.494,4.974428,
2.495,4.977716,
2.496,4.977716,
2.497,4.976072,
2.498,4.973113,
2.499,4.974428,
2.5,4.977059,
2.501,4.976072,
2.502,4.9741,
2.503,4.975744,
2.504,4.977716,
2.505,4.977059,
2.506,4.974757,
2.507,4.972785,
2.508,4.975086,
2.509,4.977716,
2.51,4.975415,
2.511,4.975086,
2.512,4.976401,
2.513,4.977388,
2.514,4.977059,
2.515,4.974757,
2.516,4.975744,
2.517,4.977388,
2.518,4.97673,
2.519,4.975744,
2.52,4.975415,
2.521,4.977716,
2.522,4.977716,
2.523,4.973771,
2.524,4.973771,
2.525,4.975744,
2.526,4.97673,
2.527,4.975086,
2.528,4.9741,
2.529,4.975086,
2.53,4.977388,
2.531,4.973771,
2.532,4.971469,
2.533,4.971469,
2.534,4.9741,
2.535,4.975086,
2.536,4.972127,
2.537,4.972456,
2.538,4.974428,
2.539,4.975086,
2.54,4.972785,
2.541,4.970812,
2.542,4.973113,
2.543,4.975086,
2.544,4.974428,
2.545,4.973442,
2.546,4.972785,
2.547,4.975086,
2.548,4.9741,
2.549,4.973771,
2.55,4.973771,
2.551,4.9741,
2.552,4.976401,
2.553,4.978374,
2.554,4.976072,
2.555,4.976072,
2.556,4.977059,
2.557,4.977388,
2.558,4.977716,
2.559,4.975744,
2.56,4.975415,
2.561,4.978045,
2.562,4.978374,
2.563,4.977388,
2.564,4.977059,
2.565,4.976401,
2.566,4.976401,
2.567,4.975086,
2.568,4.973442,
2.569,4.975744,
2.57,4.976072,
2.571,4.975744,
2.572,4.973771,
2.573,4.973771,
2.574,4.976401,
2.575,4.974757,
2.576,4.973771,
2.577,4.974428,
2.578,4.975744,
2.579,4.978045,
2.58,4.976072,
2.581,4.972127,
2.582,4.975086,
2.583,4.977059,
2.584,4.975744,
2.585,4.974428,
2.586,4.976072,
2.587,4.978045,
2.588,4.980018,
2.589,4.97673,
2.59,4.97673,
2.591,4.978703,
2.592,4.979689,
2.593,4.978374,
2.594,4.977388,
2.595,4.980347,
2.596,4.980676,
2.597,4.979032,
2.598,4.976401,
2.599,4.976401,
2.6,4.980347,
2.601,4.977716,
2.602,4.976401,
2.603,4.978374,
2.604,4.97936,
2.605,4.978374,
2.606,4.974428,
2.607,4.973771,
2.608,4.977059,
2.609,4.976401,
2.61,4.9741,
2.611,4.974428,
2.612,4.976072,
2.613,4.976401,
2.614,4.9741,
2.615,4.971798,
2.616,4.974428,
2.617,4.975086,
2.618,4.973113,
2.619,4.972456,
2.62,4.9741,
2.621,4.975744,
2.622,4.973771,
2.623,4.971469,
2.624,4.972785,
2.625,4.974757,
2.626,4.976072,
2.627,4.974428,
2.628,4.974428,
2.629,4.977716,
2.63,4.978374,
2.631,4.976072,
2.632,4.974428,
2.633,4.975086,
2.634,4.977716,
2.635,4.976072,
2.636,4.975086,
2.637,4.979032,
2.638,4.980347,
2.639,4.978374,
2.64,4.975415,
2.641,4.976401,
2.642,4.978703,
2.643,4.978703,
2.644,4.976401,
2.645,4.975415,
2.646,4.97673,
2.647,4.978045,
2.648,4.975744,
2.649,4.973771,
2.65,4.9741,
2.651,4.976401,
2.652,4.977059,
2.653,4.974757,
2.654,4.975744,
2.655,4.978703,
2.656,4.975744,
2.657,4.975086,
2.658,4.9741,
2.659,4.975744,
2.66,4.977388,
2.661,4.975086,
2.662,4.974757,
2.663,4.974757,
2.664,4.97673,
2.665,4.97673,
2.666,4.975086,
2.667,4.975744,
2.668,4.979032,
2.669,4.977059,
2.67,4.977388,
2.671,4.97673,
2.672,4.979032,
2.673,4.977716,
2.674,4.975415,
2.675,4.974757,
2.676,4.977388,
2.677,4.977716,
2.678,4.97673,
2.679,4.975744,
2.68,4.975744,
2.681,4.97673,
2.682,4.975086,
2.683,4.972785,
2.684,4.973113,
2.685,4.976401,
2.686,4.974757,
2.687,4.974428,
2.688,4.972456,
2.689,4.975086,
2.69,4.973771,
2.691,4.971469,
2.692,4.972456,
2.693,4.974428,
2.694,4.975415,
2.695,4.973113,
2.696,4.973113,
2.697,4.976401,
2.698,4.973771,
2.699,4.971798,
2.7,4.971798,
2.701,4.9741,
2.702,4.977059,
2.703,4.974428,
2.704,4.974428,
2.705,4.976401,
2.706,4.97673,
2.707,4.97673,
2.708,4.973771,
2.709,4.975086,
2.71,4.978045,
2.711,4.977388,
2.712,4.975744,
2.713,4.976401,
2.714,4.977059,
2.715,4.975744,
2.716,4.974757,
2.717,4.975086,
2.718,4.977059,
2.719,4.977059,
2.72,4.975086,
2.721,4.974428,
2.722,4.975744,
2.723,4.974757,
2.724,4.973771,
2.725,4.972127,
2.726,4.972785,
2.727,4.975086,
2.728,4.975415,
2.729,4.973442,
2.73,4.974757,
2.731,4.975415,
2.732,4.975086,
2.733,4.974757,
2.734,4.973113,
2.735,4.974757,
2.736,4.977716,
2.737,4.975744,
2.738,4.975086,
2.739,4.975744,
2.74,4.97673,
2.741,4.978703,
2.742,4.977059,
2.743,4.976401,
2.744,4.97936,
2.745,4.980676,
2.746,4.980676,
2.747,4.977388,
2.748,4.976072,
2.749,4.978374,
2.75,4.97936,
2.751,4.978374,
2.752,4.977059,
2.753,4.977716,
2.754,4.980676,
2.755,4.979689,
2.756,4.976401,
2.757,4.976072,
2.758,4.978374,
2.759,4.978045,
2.76,4.976401,
2.761,4.974757,
2.762,4.978045,
2.763,4.977388,
2.764,4.973771,
2.765,4.9741,
2.766,4.974757,
2.767,4.976072,
2.768,4.974757,
2.769,4.973771,
2.77,4.97673,
2.771,4.977388,
2.772,4.974757,
2.773,4.973771,
2.774,4.9741,
2.775,4.97673,
2.776,4.976072,
2.777,4.9741,
2.778,4.975744,
2.779,4.979032,
2.78,4.977059,
2.781,4.974428,
2.782,4.975086,
2.783,4.978374,
2.784,4.977388,
2.785,4.975086,
2.786,4.978374,
2.787,4.979689,
2.788,4.978045,
2.789,4.976072,
2.79,4.9741,
2.791,4.97673,
2.792,4.977388,
2.793,4.976072,
2.794,4.976072,
2.795,4.977059,
2.796,4.977716,
2.797,4.975744,
2.798,4.972127,
2.799,4.972127,
2.8,4.975086,
2.801,4.975086,
2.802,4.972785,
2.803,4.972785,
2.804,4.976072,
2.805,4.975415,
2.806,4.972456,
2.807,4.970483,
2.808,4.972456,
2.809,4.975086,
2.81,4.973113,
2.811,4.972785,
2.812,4.973442,
2.813,4.975744,
2.814,4.974757,
2.815,4.971798,
2.816,4.973113,
2.817,4.975415,
2.818,4.975744,
2.819,4.974757,
2.82,4.975086,
2.821,4.977059,
2.822,4.977059,
2.823,4.973113,
2.824,4.974757,
2.825,4.976072,
2.826,4.97673,
2.827,4.975744,
2.828,4.974757,
2.829,4.977716,
2.83,4.979032,
2.831,4.974428,
2.832,4.973442,
2.833,4.975744,
2.834,4.97673,
2.835,4.975744,
2.836,4.972456,
2.837,4.9741,
2.838,4.977716,
2.839,4.976072,
2.84,4.973442,
2.841,4.972785,
2.842,4.9741,
2.843,4.975744,
2.844,4.975086,
2.845,4.973442,
2.846,4.974757,
2.847,4.97673,
2.848,4.974757,
2.849,4.972456,
2.85,4.973771,
2.851,4.975744,
2.852,4.976401,
2.853,4.9741,
2.854,4.975415,
2.855,4.978374,
2.856,4.976401,
2.857,4.975086,
2.858,4.976072,
2.859,4.979032,
2.86,4.978374,
2.861,4.977059,
2.862,4.97673,
2.863,4.980018,
2.864,4.980018,
2.865,4.976401,
2.866,4.976072,
2.867,4.977716,
2.868,4.979032,
2.869,4.977716,
2.87,4.976401,
2.871,4.978045,
2.872,4.979689,
2.873,4.97673,
2.874,4.975086,
2.875,4.974757,
2.876,4.977388,
2.877,4.97673,
2.878,4.9741,
2.879,4.974757,
2.88,4.976072,
2.881,4.976401,
2.882,4.975744,
2.883,4.768604,
2.884,0.114543,
2.885,0.095144,
2.886,0.089226,
2.887,0.087582,
2.888,0.086595,
2.889,0.086924,
2.89,0.086924,
2.891,0.087253,
2.892,0.087582,
2.893,0.087253,
2.894,0.086924,
2.895,0.086924,
2.896,0.086924,
2.897,0.086924,
2.898,0.086595,
2.899,0.086924,
2.9,0.086924,
2.901,0.086924,
2.902,0.086924,
2.903,0.086924,
2.904,0.087253,
2.905,0.086595,
2.906,0.086924,
2.907,0.086595,
2.908,0.086595,
2.909,0.086595,
2.91,0.086595,
2.911,0.086924,
2.912,0.086266,
2.913,0.086266,
2.914,0.086595,
2.915,0.086595,
2.916,0.086595,
2.917,0.086595,
2.918,0.087253,
2.919,0.086924,
2.92,0.086266,
2.921,0.086595,
2.922,0.086595,
2.923,0.086595,
2.924,0.086595,
2.925,0.086924,
2.926,0.086924,
2.927,0.087253,
2.928,0.086595,
2.929,0.087582,
2.93,0.086924,
2.931,0.086595,
2.932,0.086924,
2.933,0.086924,
2.934,0.086595,
2.935,0.086595,
2.936,0.086924,
2.937,0.087253,
2.938,0.086924,
2.939,0.087253,
2.94,0.086595,
2.941,0.086924,
2.942,0.086595,
2.943,0.086924,
2.944,0.086595,
2.945,0.086924,
2.946,0.086595,
2.947,0.086266,
2.948,0.086266,
2.949,0.086924,
2.95,0.086266,
2.951,0.086595,
2.952,0.087253,
2.953,0.086924,
2.954,0.086924,
2.955,0.088568,
2.956,0.099747,
2.957,0.180301,
2.958,4.974428,
2.959,4.973442,
2.96,4.972785,
2.961,4.975415,
2.962,4.975744,
2.963,4.973442,
2.964,4.971798,
2.965,4.973113,
2.966,4.975415,
2.967,4.973113,
2.968,4.973113,
2.969,4.975415,
2.97,4.97673,
2.971,4.977388,
2.972,4.974757,
2.973,4.974428,
2.974,4.976401,
2.975,4.977388,
2.976,4.976072,
2.977,4.975086,
2.978,4.975744,
2.979,4.978374,
2.98,4.977059,
2.981,4.974428,
2.982,4.973113,
2.983,4.975744,
2.984,4.977059,
2.985,4.9741,
2.986,4.9741,
2.987,4.977059,
2.988,4.977059,
2.989,4.9741,
2.99,4.971141,
2.991,4.973113,
2.992,4.974757,
2.993,4.973442,
2.994,4.972785,
2.995,4.972456,
2.996,4.974428,
2.997,4.976072,
2.998,4.970812,
2.999,4.971141,
3,4.974757,
3.001,4.974428,
3.002,4.973113,
3.003,4.972456,
3.004,4.975415,
3.005,4.977059,
3.006,4.973771,
3.007,4.972785,
3.008,4.974428,
3.009,4.977059,
3.01,4.978374,
3.011,4.975744,
3.012,4.977388,
3.013,4.980018,
3.014,4.97936,
3.015,4.975415,
3.016,4.975086,
3.017,4.977716,
3.018,4.978703,
3.019,4.976072,
3.02,4.976072,
3.021,4.978374,
3.022,4.979689,
3.023,4.975744,
3.024,4.974428,
3.025,4.977716,
3.026,4.978374,
3.027,4.97673,
3.028,4.975086,
3.029,4.976072,
3.03,4.978374,
3.031,4.975086,
3.032,4.973113,
3.033,4.973442,
3.034,4.975744,
3.035,4.976401,
3.036,4.974428,
3.037,4.9741,
3.038,4.977388,
3.039,4.97673,
3.04,4.974428,
3.041,4.974757,
3.042,4.976072,
3.043,4.977388,
3.044,4.975744,
3.045,4.975744,
3.046,4.978703,
3.047,4.979689,
3.048,4.977059,
3.049,4.97673,
3.05,4.977059,
3.051,4.979032,
3.052,4.979689,
3.053,4.977388,
3.054,4.977388,
3.055,4.980347,
3.056,4.979689,
3.057,4.978045,
3.058,4.97673,
3.059,4.978045,
3.06,4.979689,
3.061,4.97936,
3.062,4.977716,
3.063,4.977059,
3.064,4.97936,
3.065,4.978045,
3.066,4.9741,
3.067,4.973771,
3.068,4.97673,
3.069,4.977388,
3.07,4.975744,
3.071,4.974428,
3.072,4.97673,
3.073,4.977059,
3.074,4.974428,
3.075,4.974428,
3.076,4.975086,
3.077,4.976401,
3.078,4.977059,
3.079,4.974428,
3.08,4.975415,
3.081,4.976072,
3.082,4.975086,
3.083,4.974757,
3.084,4.975744,
3.085,4.978374,
3.086,4.979689,
3.087,4.977716,
3.088,4.976401,
3.089,4.977716,
3.09,4.97673,
3.091,4.977716,
3.092,4.975086,
3.093,4.975744,
3.094,4.97936,
3.095,4.978703,
3.096,4.97673,
3.097,4.975086,
3.098,4.975744,
3.099,4.977716,
3.1,4.9741,
3.101,4.973771,
3.102,4.975415,
3.103,4.977059,
3.104,4.975415,
3.105,4.973442,
3.106,4.972785,
3.107,4.973771,
3.108,4.973113,
3.109,4.972785,
3.11,4.971469,
3.111,4.9741,
3.112,4.975086,
3.113,4.974428,
3.114,4.972127,
3.115,4.971469,
3.116,4.9741,
3.117,4.974428,
3.118,4.971798,
3.119,4.972456,
3.12,4.975744,
3.121,4.975744,
3.122,4.974428,
3.123,4.973113,
3.124,4.975744,
3.125,4.977388,
3.126,4.975415,
3.127,4.974757,
3.128,4.975744,
3.129,4.977716,
3.13,4.977388,
3.131,4.974428,
3.132,4.975415,
3.133,4.977059,
3.134,4.976401,
3.135,4.975086,
3.136,4.974428,
3.137,4.977716,
3.138,4.979032,
3.139,4.975415,
3.14,4.972785,
3.141,4.9741,
3.142,4.976401,
3.143,4.975744,
3.144,4.972456,
3.145,4.973113,
3.146,4.978045,
3.147,4.977716,
3.148,4.973442,
3.149,4.972785,
3.15,4.975744,
3.151,4.97673,
3.152,4.974757,
3.153,4.974757,
3.154,4.975744,
3.155,4.978703,
3.156,4.975744,
3.157,4.973771,
3.158,4.976072,
3.159,4.977716,
3.16,4.977388,
3.161,4.976401,
3.162,4.977716,
3.163,4.980676,
3.164,4.979032,
3.165,4.976072,
3.166,4.977716,
3.167,4.980018,
3.168,4.979689,
3.169,4.977716,
3.17,4.978703,
3.171,4.981004,
3.172,4.980347,
3.173,4.976072,
3.174,4.976401,
3.175,4.97936,
3.176,4.980347,
3.177,4.978703,
3.178,4.976401,
3.179,4.977388,
3.18,4.978703,
3.181,4.977716,
3.182,4.975415,
3.183,4.973442,
3.184,4.976072,
3.185,4.977716,
3.186,4.976401,
3.187,4.974757,
3.188,4.975744,
3.189,4.978045,
3.19,4.97673,
3.191,4.973771,
3.192,4.974757,
3.193,4.97673,
3.194,4.977716,
3.195,4.975744,
3.196,4.975744,
3.197,4.977059,
3.198,4.977716,
3.199,4.975744,
3.2,4.975415,
3.201,4.978374,
3.202,4.980676,
3.203,4.977388,
3.204,4.977716,
3.205,4.979689,
3.206,4.979032,
3.207,4.976401,
3.208,4.976072,
3.209,4.976401,
3.21,4.980018,
3.211,4.979032,
3.212,4.97673,
3.213,4.976401,
3.214,4.977388,
3.215,4.977388,
3.216,4.976072,
3.217,4.973771,
3.218,4.976401,
3.219,4.976401,
3.22,4.9741,
3.221,4.972785,
3.222,4.9741,
3.223,4.974757,
3.224,4.973113,
3.225,4.971469,
3.226,4.973771,
3.227,4.974757,
3.228,4.974428,
3.229,4.973113,
3.23,4.972127,
3.231,4.975086,
3.232,4.973442,
3.233,4.972456,
3.234,4.972456,
3.235,4.974757,
3.236,4.976401,
3.237,4.9741,
3.238,4.974757,
3.239,4.976401,
3.24,4.975744,
3.241,4.975415,
3.242,4.974757,
3.243,4.975415,
3.244,4.978374,
3.245,4.977388,
3.246,4.975086,
3.247,4.976072,
3.248,4.976401,
3.249,4.977388,
3.25,4.975086,
3.251,4.974428,
3.252,4.976401,
3.253,4.977388,
3.254,4.975086,
3.255,4.9741,
3.256,4.974428,
3.257,4.975415,
3.258,4.973771,
3.259,4.972127,
3.26,4.973771,
3.261,4.975086,
3.262,4.974428,
3.263,4.974428,
3.264,4.972785,
3.265,4.973771,
3.266,4.974428,
3.267,4.972127,
3.268,4.973442,
3.269,4.975415,
3.27,4.975744,
3.271,4.97673,
3.272,4.9741,
3.273,4.974757,
3.274,4.977059,
3.275,4.97673,
3.276,4.976072,
3.277,4.977388,
3.278,4.979689,
3.279,4.979032,
3.28,4.977716,
3.281,4.977388,
3.282,4.978045,
3.283,4.979689,
3.284,4.976401,
3.285,4.976401,
3.286,4.97936,
3.287,4.980018,
3.288,4.978703,
3.289,4.977059,
3.29,4.977059,
3.291,4.979689,
3.292,4.978703,
3.293,4.975415,
3.294,4.97673,
3.295,4.978374,
3.296,4.978045,
3.297,4.975744,
3.298,4.973442,
3.299,4.976072,
3.3,4.976401,
3.301,4.974757,
3.302,4.973771,
3.303,4.975744,
3.304,4.978045,
3.305,4.976072,
3.306,4.974757,
3.307,4.972785,
3.308,0.131311,
3.309,0.094815,
3.31,0.088568,
3.311,0.087253,
3.312,0.086595,
3.313,0.087582,
3.314,0.086924,
3.315,0.086924,
3.316,0.086924,
3.317,0.086595,
3.318,0.086595,
3.319,0.086595,
3.32,0.086924,
3.321,0.086595,
3.322,0.086595,
3.323,0.087253,
3.324,0.086595,
3.325,0.086924,
3.326,0.086924,
3.327,0.086595,
3.328,0.086595,
3.329,0.086595,
3.33,0.086595,
3.331,0.086924,
3.332,0.086595,
3.333,0.086924,
3.334,0.086924,
3.335,0.086924,
3.336,0.086595,
3.337,0.086595,
3.338,0.086924,
3.339,0.086595,
3.34,0.087582,
3.341,0.086924,
3.342,0.086595,
3.343,0.086924,
3.344,0.086924,
3.345,0.086924,
3.346,0.086266,
3.347,0.086595,
3.348,0.086595,
3.349,0.086924,
3.35,0.086924,
3.351,0.086595,
3.352,0.086924,
3.353,0.086924,
3.354,0.086924,
3.355,0.086924,
3.356,0.086924,
3.357,0.086924,
3.358,0.087582,
3.359,0.086595,
3.36,0.087253,
3.361,0.086595,
3.362,0.086595,
3.363,0.086595,
3.364,0.086924,
3.365,0.086595,
3.366,0.086595,
3.367,0.086595,
3.368,0.086595,
3.369,0.087253,
3.37,0.086595,
3.371,0.086595,
3.372,0.087253,
3.373,0.086595,
3.374,0.086924,
3.375,0.086266,
3.376,0.086924,
3.377,0.08791,
3.378,0.090212,
3.379,0.095473,
3.38,0.10698,
3.381,0.144134,
3.382,4.962592,
3.383,4.973113,
3.384,4.973442,
3.385,4.975086,
3.386,4.975415,
3.387,4.975415,
3.388,4.975744,
3.389,4.977388,
3.39,4.977716,
3.391,4.97673,
3.392,4.975744,
3.393,4.977716,
3.394,4.979689,
3.395,4.980018,
3.396,4.978374,
3.397,4.977059,
3.398,4.978703,
3.399,4.979689,
3.4,4.977059,
3.401,4.976401,
3.402,4.977716,
3.403,4.980676,
3.404,4.978703,
3.405,4.977388,
3.406,4.977716,
3.407,4.977716,
3.408,4.978703,
3.409,4.975744,
3.41,4.975415,
3.411,4.977388,
3.412,4.977716,
3.413,4.977388,
3.414,4.974757,
3.415,4.973771,
3.416,4.97673,
3.417,4.975744,
3.418,4.975086,
3.419,4.975415,
3.42,4.976401,
3.421,4.978374,
3.422,4.976401,
3.423,4.973442,
3.424,4.975086,
3.425,4.977059,
3.426,4.976401,
3.427,4.975415,
3.428,4.97673,
3.429,4.979689,
3.43,4.979689,
3.431,4.976401,
3.432,4.975744,
3.433,4.978703,
3.434,4.980018,
3.435,4.977059,
3.436,4.977059,
3.437,4.980018,
3.438,4.980676,
3.439,4.978045,
3.44,4.975744,
3.441,4.977059,
3.442,4.980347,
3.443,4.978045,
3.444,4.97673,
3.445,4.977388,
3.446,4.977388,
3.447,4.977388,
3.448,4.9741,
3.449,4.974428,
3.45,4.975744,
3.451,4.976401,
3.452,4.9741,
3.453,4.974757,
3.454,4.977059,
3.455,4.97673,
3.456,4.973442,
3.457,4.972456,
3.458,4.973771,
3.459,4.975744,
3.46,4.975415,
3.461,4.973442,
3.462,4.973113,
3.463,4.975415,
3.464,4.975086,
3.465,4.9741,
3.466,4.973442,
3.467,4.975086,
3.468,4.978374,
3.469,4.97936,
3.47,4.975415,
3.471,4.976072,
3.472,4.978045,
3.473,4.977716,
3.474,4.976072,
3.475,4.974428,
3.476,4.975744,
3.477,4.978374,
3.478,4.978045,
3.479,4.976072,
3.48,4.974757,
3.481,4.97673,
3.482,4.976401,
3.483,4.9741,
3.484,4.973771,
3.485,4.975086,
3.486,4.976072,
3.487,4.9741,
3.488,4.972456,
3.489,4.974428,
3.49,4.973113,
3.491,4.972785,
3.492,4.971798,
3.493,4.971141,
3.494,4.974757,
3.495,4.975415,
3.496,4.972785,
3.497,4.972456,
3.498,4.973113,
3.499,4.973771,
3.5,4.971469,
3.501,4.971141,
3.502,4.975086,
3.503,4.976401,
3.504,4.9741,
3.505,4.974428,
3.506,4.975744,
3.507,4.97673,
3.508,4.975086,
3.509,4.974428,
3.51,4.976072,
3.511,4.977059,
3.512,4.978374,
3.513,4.976072,
3.514,4.975086,
3.515,4.975415,
3.516,4.97673,
3.517,4.975086,
3.518,4.974428,
3.519,4.975415,
3.52,4.97673,
3.521,4.978374,
3.522,4.975086,
3.523,4.9741,
3.524,4.97673,
3.525,4.975415,
3.526,4.974757,
3.527,4.973442,
3.528,4.976401,
3.529,4.977388,
3.53,4.975744,
3.531,4.973771,
3.532,4.9741,
3.533,4.976072,
3.534,4.974757,
3.535,4.973113,
3.536,4.975415,
3.537,4.977716,
3.538,4.977388,
3.539,4.974428,
3.54,4.973771,
3.541,4.977716,
3.542,4.978045,
3.543,4.977059,
3.544,4.977059,
3.545,4.977388,
3.546,4.980347,
3.547,4.980018,
3.548,4.976072,
3.549,4.975744,
3.55,4.978374,
3.551,4.979689,
3.552,4.977716,
3.553,4.976401,
3.554,4.979032,
3.555,4.980347,
3.556,4.977059,
3.557,4.976401,
3.558,4.975744,
3.559,4.978374,
3.56,4.978045,
3.561,4.975744,
3.562,4.975086,
3.563,4.974757,
3.564,4.976072,
3.565,4.974428,
3.566,4.972785,
3.567,4.974428,
3.568,4.975415,
3.569,4.975415,
3.57,4.975086,
3.571,4.973113,
3.572,4.975744,
3.573,4.973771,
3.574,4.972127,
3.575,4.972127,
3.576,4.973771,
3.577,4.975744,
3.578,4.975086,
3.579,4.972456,
3.58,4.973771,
3.581,4.977059,
3.582,4.976072,
3.583,4.9741,
3.584,4.975086,
3.585,4.977388,
3.586,4.977388,
3.587,4.975415,
3.588,4.975086,
3.589,4.97673,
3.59,4.977059,
3.591,4.975415,
3.592,4.973113,
3.593,4.975415,
3.594,4.97673,
3.595,4.976401,
3.596,4.975086,
3.597,4.975415,
3.598,4.975415,
3.599,4.974428,
3.6,4.972785,
3.601,4.972785,
3.602,4.974757,
3.603,4.9741,
3.604,4.972127,
3.605,4.973113,
3.606,4.9741,
3.607,4.973442,
3.608,4.971469,
3.609,4.971141,
3.61,4.974757,
3.611,4.975086,
3.612,4.972456,
3.613,4.9741,
3.614,4.975086,
3.615,4.9741,
3.616,4.973442,
3.617,4.971469,
3.618,4.973771,
3.619,4.97673,
3.62,4.975744,
3.621,4.97673,
3.622,4.974757,
3.623,4.976072,
3.624,4.978045,
3.625,4.976072,
3.626,4.974757,
3.627,4.97673,
3.628,4.977716,
3.629,4.978374,
3.63,4.976401,
3.631,4.975744,
3.632,4.977059,
3.633,4.977059,
3.634,4.975744,
3.635,4.976401,
3.636,4.977716,
3.637,4.979032,
3.638,4.976072,
3.639,4.975086,
3.64,4.975744,
3.641,4.976072,
3.642,4.975744,
3.643,4.973771,
3.644,4.974757,
3.645,4.977388,
3.646,4.976401,
3.647,4.974428,
3.648,4.9741,
3.649,4.975744,
3.65,4.97673,
3.651,4.974757,
3.652,4.973771,
3.653,4.976401,
3.654,4.977388,
3.655,4.978045,
3.656,4.974757,
3.657,4.974428,
3.658,4.978703,
3.659,4.97936,
3.66,4.978703,
3.661,4.977059,
3.662,4.978374,
3.663,4.980676,
3.664,4.980018,
3.665,4.97673,
3.666,4.976072,
3.667,4.977716,
3.668,4.980018,
3.669,4.978703,
3.67,4.97673,
3.671,4.979032,
3.672,4.980018,
3.673,4.977388,
3.674,4.975744,
3.675,4.975744,
3.676,4.977716,
3.677,4.977388,
3.678,4.975086,
3.679,4.974757,
3.68,4.97673,
3.681,4.976072,
3.682,4.973442,
3.683,4.973113,
3.684,4.975744,
3.685,4.976072,
3.686,4.975086,
3.687,4.974757,
3.688,4.975744,
3.689,4.977716,
3.69,4.9741,
3.691,4.973113,
3.692,4.974757,
3.693,4.977059,
3.694,4.97673,
3.695,4.975744,
3.696,4.975086,
3.697,4.978045,
3.698,4.977716,
3.699,4.975744,
3.7,4.976072,
3.701,4.977716,
3.702,4.979689,
3.703,4.977716,
3.704,4.976401,
3.705,4.97673,
3.706,4.978374,
3.707,4.977388,
3.708,4.975415,
3.709,4.974428,
3.71,4.97673,
3.711,4.977716,
3.712,4.977059,
3.713,4.973442,
3.714,4.972456,
3.715,4.9741,
3.716,4.9741,
3.717,4.971798,
3.718,4.972127,
3.719,4.974757,
3.72,4.975744,
3.721,4.973771,
3.722,4.971469,
3.723,4.974428,
3.724,4.9741,
3.725,4.972785,
3.726,4.972456,
3.727,4.973771,
3.728,4.975086,
3.729,4.9741,
3.73,4.972785,
3.731,4.973771,
3.732,4.974757,
3.733,4.973771,
3.734,4.972785,
3.735,4.974428,
3.736,4.977716,
3.737,4.976072,
3.738,4.975415,
3.739,4.975086,
3.74,4.975744,
3.741,4.977059,
3.742,4.974757,
3.743,4.973771,
3.744,4.976401,
3.745,4.978374,
3.746,4.979689,
3.747,4.976401,
3.748,4.973442,
3.749,4.977059,
3.75,4.977388,
3.751,4.974428,
3.752,4.974428,
3.753,4.975415,
3.754,4.977059,
3.755,4.976401,
3.756,4.972785,
3.757,4.973442,
3.758,4.975744,
3.759,4.976072,
3.76,4.974757,
3.761,4.9741,
3.762,4.977059,
3.763,4.978703,
3.764,4.975415,
3.765,4.9741,
3.766,4.975415,
3.767,4.976401,
3.768,4.975744,
3.769,4.974428,
3.77,4.977716,
3.771,4.977716,
3.772,0.15334,
3.773,0.102706,
3.774,0.091527,
3.775,0.08791,
3.776,0.086924,
3.777,0.086595,
3.778,0.087253,
3.779,0.086924,
3.78,0.086924,
3.781,0.086924,
3.782,0.087253,
3.783,0.086924,
3.784,0.086924,
3.785,0.086595,
3.786,0.086924,
3.787,0.086595,
3.788,0.086595,
3.789,0.086595,
3.79,0.086924,
3.791,0.086924,
3.792,0.086924,
3.793,0.086924,
3.794,0.086924,
3.795,0.086924,
3.796,0.087253,
3.797,0.087253,
3.798,0.087253,
3.799,0.086595,
3.8,0.086924,
3.801,0.086924,
3.802,0.086924,
3.803,0.087253,
3.804,0.086924,
3.805,0.086924,
3.806,0.086595,
3.807,0.086595,
3.808,0.086595,
3.809,0.086924,
3.81,0.087253,
3.811,0.086924,
3.812,0.086924,
3.813,0.086924,
3.814,0.086924,
3.815,0.086595,
3.816,0.086924,
3.817,0.086595,
3.818,0.087253,
3.819,0.086924,
3.82,0.086595,
3.821,0.086924,
3.822,0.087253,
3.823,0.087253,
3.824,0.086595,
3.825,0.086595,
3.826,0.086266,
3.827,0.086266,
3.828,0.086595,
3.829,0.086924,
3.83,0.086924,
3.831,0.086924,
3.832,0.086924,
3.833,0.086924,
3.834,0.086595,
3.835,0.086595,
3.836,0.087253,
3.837,0.086266,
3.838,0.086595,
3.839,0.086266,
3.84,0.086924,
3.841,0.086595,
3.842,0.086924,
3.843,0.086595,
3.844,0.087253,
3.845,0.092514,
3.846,0.118488,
3.847,4.939248,
3.848,4.975086,
3.849,4.975086,
3.85,4.9741,
3.851,4.974428,
3.852,4.977716,
3.853,4.978045,
3.854,4.975086,
3.855,4.975086,
3.856,4.97673,
3.857,4.976072,
3.858,4.975086,
3.859,4.974757,
3.86,4.976401,
3.861,4.978374,
3.862,4.977059,
3.863,4.975415,
3.864,4.975415,
3.865,4.975744,
3.866,4.975744,
3.867,4.973442,
3.868,4.973113,
3.869,4.974428,
3.87,4.975086,
3.871,4.9741,
3.872,4.972127,
3.873,4.971798,
3.874,4.9741,
3.875,4.972785,
3.876,4.972127,
3.877,4.972785,
3.878,4.974757,
3.879,4.975086,
3.88,4.975086,
3.881,4.972456,
3.882,4.974428,
3.883,4.974428,
3.884,4.973442,
3.885,4.973771,
3.886,4.975744,
3.887,4.978374,
3.888,4.978374,
3.889,4.97673,
3.89,4.975744,
3.891,4.978703,
3.892,4.980018,
3.893,4.977388,
3.894,4.97673,
3.895,4.978374,
3.896,4.980676,
3.897,4.979032,
3.898,4.975744,
3.899,4.977059,
3.9,4.979689,
3.901,4.977716,
3.902,4.976401,
3.903,4.976401,
3.904,4.978045,
3.905,4.978703,
3.906,4.975086,
3.907,4.973442,
3.908,4.976401,
3.909,4.976401,
3.91,4.975086,
3.911,4.974757,
3.912,4.976401,
3.913,4.977059,
3.914,4.97673,
3.915,4.974428,
3.916,4.975086,
3.917,4.977059,
3.918,4.97673,
3.919,4.974757,
3.92,4.975744,
3.921,4.978374,
3.922,4.977716,
3.923,4.974428,
3.924,4.975086,
3.925,4.977059,
3.926,4.979689,
3.927,4.977388,
3.928,4.977059,
3.929,4.978703,
3.93,4.978703,
3.931,4.977059,
3.932,4.976072,
3.933,4.975086,
3.934,4.978703,
3.935,4.977716,
3.936,4.976401,
3.937,4.977059,
3.938,4.978703,
3.939,4.977716,
3.94,4.975086,
3.941,4.974757,
3.942,4.97673,
3.943,4.976401,
3.944,4.975744,
3.945,4.9741,
3.946,4.975415,
3.947,4.976401,
3.948,4.972785,
3.949,4.972456,
3.95,4.972456,
3.951,4.975744,
3.952,4.9741,
3.953,4.972456,
3.954,4.973771,
3.955,4.975086,
3.956,4.974428,
3.957,4.972127,
3.958,4.971469,
3.959,4.973771,
3.96,4.975744,
3.961,4.973442,
3.962,4.973442,
3.963,4.974428,
3.964,4.976401,
3.965,4.97673,
3.966,4.973442,
3.967,4.9741,
3.968,4.977059,
3.969,4.978045,
3.97,4.977059,
3.971,4.975086,
3.972,4.976401,
3.973,4.977388,
3.974,4.976401,
3.975,4.974757,
3.976,4.975415,
3.977,4.977059,
3.978,4.978374,
3.979,4.976072,
3.98,4.975086,
3.981,4.976401,
3.982,4.975086,
3.983,4.973442,
3.984,4.973113,
3.985,4.976072,
3.986,4.974757,
3.987,4.974428,
3.988,4.974757,
3.989,4.975744,
3.99,4.974757,
3.991,4.9741,
3.992,4.972785,
3.993,4.975744,
3.994,4.976401,
3.995,4.974757,
3.996,4.975415,
3.997,4.976072,
3.998,4.976401,
3.999,4.975744,
4,4.9741,
4.001,4.97673,
4.002,4.978703,
4.003,4.978374,
4.004,4.977059,
4.005,4.979032,
4.006,4.979689,
4.007,4.978703,
4.008,4.977388,
4.009,4.977059,
4.01,4.980018,
4.011,4.979689,
4.012,4.977388,
4.013,4.977059,
4.014,4.979032,
4.015,4.978703,
4.016,4.977059,
4.017,4.976072,
4.018,4.977059,
4.019,4.978703,
4.02,4.977059,
4.021,4.975086,
4.022,4.975415,
4.023,4.975744,
4.024,4.976072,
4.025,4.972785,
4.026,4.973113,
4.027,4.976401,
4.028,4.97673,
4.029,4.974428,
4.03,4.973771,
4.031,4.974428,
4.032,4.974428,
4.033,4.973113,
4.034,4.972456,
4.035,4.974757,
4.036,4.974757,
4.037,4.974757,
4.038,4.973113,
4.039,4.975086,
4.04,4.975744,
4.041,4.974757,
4.042,4.975086,
4.043,4.975744,
4.044,4.976401,
4.045,4.977388,
4.046,4.975744,
4.047,4.974428,
4.048,4.97673,
4.049,4.97673,
4.05,4.974428,
4.051,4.974428,
4.052,4.97673,
4.053,4.977716,
4.054,4.975415,
4.055,4.975415,
4.056,4.975744,
4.057,4.975086,
4.058,4.975744,
4.059,4.972785,
4.06,4.973113,
4.061,4.975086,
4.062,4.975744,
4.063,4.976401,
4.064,4.973113,
4.065,4.973442,
4.066,4.975415,
4.067,4.9741,
4.068,4.973113,
4.069,4.973771,
4.07,4.975744,
4.071,4.97673,
4.072,4.974428,
4.073,4.971798,
4.074,4.974428,
4.075,4.976072,
4.076,4.976072,
4.077,4.974757,
4.078,4.977059,
4.079,4.978703,
4.08,4.97936,
4.081,4.976401,
4.082,4.975744,
4.083,4.978045,
4.084,4.977716,
4.085,4.975744,
4.086,4.977059,
4.087,4.979032,
4.088,4.980018,
4.089,4.977388,
4.09,4.975415,
4.091,4.977059,
4.092,4.978703,
4.093,4.977716,
4.094,4.976401,
4.095,4.976401,
4.096,4.978045,
4.097,4.978374,
4.098,4.974428,
4.099,4.973442,
4.1,4.977388,
4.101,4.977059,
4.102,4.975415,
4.103,4.974757,
4.104,4.977388,
4.105,4.978703,
4.106,4.975086,
4.107,4.973442,
4.108,4.975744,
4.109,4.977388,
4.11,4.97673,
4.111,4.974428,
4.112,4.975744,
4.113,4.978703,
4.114,4.977388,
4.115,4.975415,
4.116,4.975086,
4.117,4.978374,
4.118,4.979032,
4.119,4.977716,
4.12,4.977059,
4.121,4.97936,
4.122,4.980018,
4.123,4.976401,
4.124,4.976072,
4.125,4.977388,
4.126,4.979689,
4.127,4.978374,
4.128,4.976401,
4.129,4.977716,
4.13,4.979689,
4.131,4.978374,
4.132,4.975744,
4.133,4.975415,
4.134,4.977716,
4.135,4.977716,
4.136,4.97673,
4.137,4.974428,
4.138,4.974428,
4.139,4.97673,
4.14,4.974428,
4.141,4.972127,
4.142,4.972785,
4.143,4.975086,
4.144,4.976401,
4.145,4.973771,
4.146,4.972127,
4.147,4.9741,
4.148,4.974428,
4.149,4.973771,
4.15,4.971141,
4.151,4.974428,
4.152,4.975415,
4.153,4.975086,
4.154,4.974428,
4.155,4.975744,
4.156,4.976401,
4.157,4.976401,
4.158,4.975086,
4.159,4.974757,
4.16,4.97673,
4.161,4.977388,
4.162,4.97673,
4.163,4.975744,
4.164,4.977059,
4.165,4.977059,
4.166,4.973771,
4.167,4.973771,
4.168,4.97673,
4.169,4.977388,
4.17,4.976401,
4.171,4.973771,
4.172,4.974428,
4.173,4.974757,
4.174,4.9741,
4.175,4.972127,
4.176,4.971798,
4.177,4.974428,
4.178,4.975744,
4.179,4.973442,
4.18,4.972456,
4.181,4.972456,
4.182,4.9741,
4.183,4.973771,
4.184,4.971469,
4.185,4.973442,
4.186,4.975744,
4.187,4.975086,
4.188,4.975744,
4.189,4.973442,
4.19,4.9741,
4.191,4.97673,
4.192,4.976072,
4.193,4.975744,
4.194,4.97673,
4.195,4.979032,
4.196,0.186548,
4.197,0.101062,
4.198,0.089226,
4.199,0.087253,
4.2,0.086924,
4.201,0.086924,
4.202,0.086924,
4.203,0.086924,
4.204,0.086595,
4.205,0.086595,
4.206,0.086595,
4.207,0.086595,
4.208,0.086595,
4.209,0.086595,
4.21,0.086924,
4.211,0.087253,
4.212,0.086924,
4.213,0.086595,
4.214,0.086924,
4.215,0.087253,
4.216,0.086924,
4.217,0.086266,
4.218,0.086595,
4.219,0.086924,
4.22,0.087253,
4.221,0.086595,
4.222,0.087253,
4.223,0.086595,
4.224,0.086595,
4.225,0.086595,
4.226,0.087253,
4.227,0.087253,
4.228,0.087582,
4.229,0.087253,
4.23,0.086924,
4.231,0.086595,
4.232,0.086595,
4.233,0.086595,
4.234,0.086924,
4.235,0.086595,
4.236,0.086924,
4.237,0.086266,
4.238,0.086595,
4.239,0.086595,
4.24,0.086595,
4.241,0.086924,
4.242,0.087253,
4.243,0.086595,
4.244,0.086595,
4.245,0.086924,
4.246,0.086924,
4.247,0.086595,
4.248,0.087253,
4.249,0.086595,
4.25,0.087253,
4.251,0.086924,
4.252,0.086595,
4.253,0.086595,
4.254,0.086924,
4.255,0.086924,
4.256,0.086924,
4.257,0.086595,
4.258,0.086595,
4.259,0.086924,
4.26,0.086924,
4.261,0.086924,
4.262,0.086924,
4.263,0.086924,
4.264,0.086595,
4.265,0.087253,
4.266,0.087582,
4.267,0.090212,
4.268,0.095473,
4.269,0.105994,
4.27,0.137887,
4.271,4.942864,
4.272,4.976401,
4.273,4.97673,
4.274,4.977388,
4.275,4.9741,
4.276,4.975744,
4.277,4.977388,
4.278,4.977388,
4.279,4.976401,
4.28,4.975415,
4.281,4.977059,
4.282,4.97673,
4.283,4.974428,
4.284,4.975086,
4.285,4.976401,
4.286,4.976072,
4.287,4.975086,
4.288,4.974757,
4.289,4.97673,
4.29,4.975744,
4.291,4.974428,
4.292,4.972785,
4.293,4.974428,
4.294,4.978374,
4.295,4.977059,
4.296,4.975415,
4.297,4.975086,
4.298,4.975744,
4.299,4.976072,
4.3,4.974757,
4.301,4.972456,
4.302,4.975744,
4.303,4.977388,
4.304,4.975744,
4.305,4.976401,
4.306,4.97673,
4.307,4.978374,
4.308,4.977388,
4.309,4.977059,
4.31,4.978703,
4.311,4.979689,
4.312,4.980676,
4.313,4.978703,
4.314,4.977716,
4.315,4.978374,
4.316,4.978374,
4.317,4.977716,
4.318,4.977059,
4.319,4.979032,
4.32,4.981004,
4.321,4.978045,
4.322,4.97673,
4.323,4.977716,
4.324,4.978374,
4.325,4.977059,
4.326,4.974757,
4.327,4.975744,
4.328,4.977388,
4.329,4.97673,
4.33,4.973113,
4.331,4.973442,
4.332,4.975415,
4.333,4.976072,
4.334,4.973771,
4.335,4.973442,
4.336,4.976401,
4.337,4.977059,
4.338,4.974428,
4.339,4.973442,
4.34,4.973771,
4.341,4.975744,
4.342,4.973771,
4.343,4.973113,
4.344,4.977388,
4.345,4.977716,
4.346,4.977716,
4.347,4.975744,
4.348,4.975415,
4.349,4.977388,
4.35,4.977388,
4.351,4.975744,
4.352,4.975744,
4.353,4.97673,
4.354,4.979032,
4.355,4.97673,
4.356,4.9741,
4.357,4.974428,
4.358,4.976072,
4.359,4.977059,
4.36,4.9741,
4.361,4.974428,
4.362,4.97673,
4.363,4.977059,
4.364,4.973113,
4.365,4.971798,
4.366,4.973442,
4.367,4.975744,
4.368,4.972456,
4.369,4.973113,
4.37,4.973771,
4.371,4.974428,
4.372,4.9741,
4.373,4.971798,
4.374,4.971141,
4.375,4.9741,
4.376,4.973442,
4.377,4.973113,
4.378,4.971798,
4.379,4.974757,
4.38,4.976072,
4.381,4.973442,
4.382,4.972785,
4.383,4.9741,
4.384,4.976072,
4.385,4.97673,
4.386,4.9741,
4.387,4.975086,
4.388,4.978374,
4.389,4.97673,
4.39,4.974428,
4.391,4.9741,
4.392,4.975086,
4.393,4.978703,
4.394,4.976072,
4.395,4.975415,
4.396,4.97673,
4.397,4.977716,
4.398,4.97673,
4.399,4.974428,
4.4,4.972785,
4.401,4.975086,
4.402,4.975744,
4.403,4.974757,
4.404,4.973113,
4.405,4.9741,
4.406,4.975086,
4.407,4.974757,
4.408,4.972785,
4.409,4.972456,
4.41,4.974757,
4.411,4.977059,
4.412,4.975086,
4.413,4.975086,
4.414,4.974757,
4.415,4.974757,
4.416,4.976072,
4.417,4.973442,
4.418,4.974428,
4.419,4.977388,
4.42,4.977059,
4.421,4.977716,
4.422,4.977059,
4.423,4.977388,
4.424,4.979032,
4.425,4.977059,
4.426,4.977059,
4.427,4.977716,
4.428,4.980018,
4.429,4.97936,
4.43,4.977059,
4.431,4.977388,
4.432,4.978703,
4.433,4.978045,
4.434,4.975744,
4.435,4.975744,
4.436,4.97936,
4.437,4.980018,
4.438,4.976401,
4.439,4.975744,
4.44,4.97673,
4.441,4.977388,
4.442,4.975415,
4.443,4.974428,
4.444,4.975744,
4.445,4.977388,
4.446,4.97673,
4.447,4.975415,
4.448,4.973113,
4.449,4.975744,
4.45,4.977059,
4.451,4.974428,
4.452,4.974428,
4.453,4.977059,
4.454,4.977388,
4.455,4.976072,
4.456,4.973442,
4.457,4.975086,
4.458,4.977388,
4.459,4.976401,
4.46,4.977059,
4.461,4.977388,
4.462,4.979032,
4.463,4.97936,
4.464,4.975744,
4.465,4.976401,
4.466,4.978374,
4.467,4.978703,
4.468,4.976401,
4.469,4.976401,
4.47,4.978703,
4.471,4.978374,
4.472,4.976072,
4.473,4.973771,
4.474,4.975744,
4.475,4.976401,
4.476,4.975744,
4.477,4.972785,
4.478,4.9741,
4.479,4.975744,
4.48,4.975415,
4.481,4.972127,
4.482,4.970483,
4.483,4.973442,
4.484,4.973771,
4.485,4.971798,
4.486,4.971469,
4.487,4.973771,
4.488,4.975415,
4.489,4.973113,
4.49,4.970812,
4.491,4.972456,
4.492,4.974757,
4.493,4.974757,
4.494,4.972127,
4.495,4.973442,
4.496,4.976401,
4.497,4.976401,
4.498,4.9741,
4.499,4.974428,
4.5,4.974428,
4.501,4.976401,
4.502,4.976401,
4.503,4.9741,
4.504,4.975086,
4.505,4.977716,
4.506,4.977059,
4.507,4.975415,
4.508,4.973771,
4.509,4.975415,
4.51,4.978045,
4.511,4.977059,
4.512,4.974428,
4.513,4.975415,
4.514,4.97673,
4.515,4.975415,
4.516,4.972127,
4.517,4.972456,
4.518,4.975086,
4.519,4.974757,
4.52,4.973442,
4.521,4.973771,
4.522,4.975744,
4.523,4.9741,
4.524,4.972456,
4.525,4.973113,
4.526,4.974428,
4.527,4.975744,
4.528,4.974428,
4.529,4.973442,
4.53,4.977059,
4.531,4.975415,
4.532,4.972785,
4.533,4.974428,
4.534,4.975415,
4.535,4.978045,
4.536,4.977059,
4.537,4.975744,
4.538,4.977059,
4.539,4.979032,
4.54,4.979032,
4.541,4.977716,
4.542,4.976072,
4.543,4.978045,
4.544,4.980676,
4.545,4.978703,
4.546,4.977716,
4.547,4.977059,
4.548,4.979032,
4.549,4.978374,
4.55,4.976401,
4.551,4.976401,
4.552,4.978045,
4.553,4.978374,
4.554,4.977059,
4.555,4.975415,
4.556,4.976072,
4.557,4.976072,
4.558,4.975744,
4.559,4.974757,
4.56,4.9741,
4.561,4.97673,
4.562,4.977388,
4.563,4.975415,
4.564,4.975415,
4.565,4.975744,
4.566,4.975415,
4.567,4.974428,
4.568,4.973442,
4.569,4.97673,
4.57,4.97673,
4.571,4.974757,
4.572,4.974757,
4.573,4.975744,
4.574,4.97673,
4.575,4.976072,
4.576,4.973771,
4.577,4.976072,
4.578,4.978703,
4.579,4.97673,
4.58,4.975415,
4.581,4.975086,
4.582,4.976401,
4.583,4.977059,
4.584,4.9741,
4.585,4.975415,
4.586,4.97673,
4.587,4.978045,
4.588,4.978045,
4.589,4.974428,
4.59,4.972456,
4.591,4.975086,
4.592,4.975086,
4.593,4.9741,
4.594,4.972456,
4.595,4.9741,
4.596,4.975744,
4.597,4.973771,
4.598,4.970812,
4.599,4.970483,
4.6,4.974428,
4.601,4.9741,
4.602,4.971141,
4.603,4.972456,
4.604,4.975086,
4.605,4.975744,
4.606,4.972127,
4.607,4.971141,
4.608,4.973771,
4.609,4.976072,
4.61,4.973771,
4.611,4.973113,
4.612,4.976072,
4.613,4.979032,
4.614,4.977716,
4.615,4.974428,
4.616,4.975086,
4.617,4.978045,
4.618,4.976401,
4.619,4.975086,
4.62,4.975744,
4.621,4.97936,
4.622,4.979032,
4.623,4.974428,
4.624,4.975086,
4.625,4.976401,
4.626,4.979032,
4.627,4.977059,
4.628,4.975415,
4.629,4.976401,
4.63,4.978374,
4.631,4.977388,
4.632,4.973771,
4.633,4.973771,
4.634,4.975086,
4.635,4.976401,
4.636,4.975086,
4.637,4.974757,
4.638,4.974428,
4.639,4.976401,
4.64,4.976072,
4.641,4.9741,
4.642,4.972785,
4.643,4.973771,
4.644,4.97673,
4.645,4.978045,
4.646,4.976072,
4.647,4.975086,
4.648,4.975744,
4.649,4.977388,
4.65,4.976401,
4.651,4.974757,
4.652,4.977059,
4.653,4.980347,
4.654,4.978045,
4.655,4.977716,
4.656,4.977716,
4.657,4.978374,
4.658,4.978374,
4.659,4.97673,
4.66,4.836993,
4.661,0.115858,
4.662,0.095801,
4.663,0.089226,
4.664,0.086924,
4.665,0.086595,
4.666,0.086595,
4.667,0.086266,
4.668,0.086595,
4.669,0.086595,
4.67,0.086924,
4.671,0.086595,
4.672,0.086924,
4.673,0.086595,
4.674,0.085938,
4.675,0.086924,
4.676,0.086595,
4.677,0.086924,
4.678,0.086924,
4.679,0.086595,
4.68,0.086595,
4.681,0.086266,
4.682,0.086595,
4.683,0.087253,
4.684,0.086924,
4.685,0.087253,
4.686,0.086924,
4.687,0.086924,
4.688,0.086924,
4.689,0.086595,
4.69,0.086924,
4.691,0.086595,
4.692,0.086595,
4.693,0.086595,
4.694,0.086924,
4.695,0.085938,
4.696,0.086924,
4.697,0.086924,
4.698,0.086924,
4.699,0.087253,
4.7,0.086595,
4.701,0.086595,
4.702,0.086924,
4.703,0.086924,
4.704,0.086266,
4.705,0.086595,
4.706,0.086595,
4.707,0.086595,
4.708,0.086924,
4.709,0.086924,
4.71,0.086595,
4.711,0.086924,
4.712,0.086924,
4.713,0.086595,
4.714,0.087253,
4.715,0.086595,
4.716,0.086924,
4.717,0.086266,
4.718,0.086595,
4.719,0.086266,
4.72,0.087253,
4.721,0.086924,
4.722,0.087582,
4.723,0.086266,
4.724,0.086924,
4.725,0.086595,
4.726,0.086924,
4.727,0.086595,
4.728,0.087582,
4.729,0.086595,
4.73,0.086595,
4.731,0.087253,
4.732,0.086924,
4.733,0.086595,
4.734,0.089226,
4.735,0.101391,
4.736,0.198713,
4.737,4.975415,
4.738,4.975744,
4.739,4.977388,
4.74,4.976401,
4.741,4.975086,
4.742,4.973113,
4.743,4.975415,
4.744,4.977059,
4.745,4.976072,
4.746,4.9741,
4.747,4.973442,
4.748,4.974428,
4.749,4.974428,
4.75,4.972127,
4.751,4.972456,
4.752,4.9741,
4.753,4.974757,
4.754,4.973113,
4.755,4.973442,
4.756,4.9741,
4.757,4.974428,
4.758,4.973442,
4.759,4.972785,
4.76,4.9741,
4.761,4.975744,
4.762,4.975415,
4.763,4.974757,
4.764,4.975415,
4.765,4.976401,
4.766,4.977059,
4.767,4.974757,
4.768,4.975086,
4.769,4.978045,
4.77,4.978703,
4.771,4.97673,
4.772,4.976401,
4.773,4.976401,
4.774,4.977716,
4.775,4.978374,
4.776,4.974757,
4.777,4.975744,
4.778,4.978045,
4.779,4.978045,
4.78,4.978703,
4.781,4.9741,
4.782,4.975086,
4.783,4.97673,
4.784,4.975415,
4.785,4.973771,
4.786,4.973771,
4.787,4.976401,
4.788,4.977716,
4.789,4.974428,
4.79,4.973442,
4.791,4.975415,
4.792,4.977059,
4.793,4.975744,
4.794,4.974757,
4.795,4.975744,
4.796,4.977716,
4.797,4.97673,
4.798,4.974428,
4.799,4.974428,
4.8,4.976072,
4.801,4.976401,
4.802,4.975086,
4.803,4.976072,
4.804,4.979032,
4.805,4.980347,
4.806,4.976072,
4.807,4.976401,
4.808,4.978703,
4.809,4.979689,
4.81,4.978045,
4.811,4.977716,
4.812,4.978045,
4.813,4.981004,
4.814,4.980676,
4.815,4.976072,
4.816,4.976401,
4.817,4.977716,
4.818,4.980347,
4.819,4.977059,
4.82,4.976072,
4.821,4.978045,
4.822,4.978374,
4.823,4.974757,
4.824,4.9741,
4.825,4.9741,
4.826,4.976401,
4.827,4.97673,
4.828,4.975086,
4.829,4.973771,
4.83,4.973771,
4.831,4.975744,
4.832,4.974428,
4.833,4.972456,
4.834,4.973442,
4.835,4.975086,
4.836,4.975415,
4.837,4.974428,
4.838,4.972785,
4.839,4.976072,
4.84,4.975086,
4.841,4.9741,
4.842,4.9741,
4.843,4.976401,
4.844,4.977388,
4.845,4.97673,
4.846,4.975086,
4.847,4.977059,
4.848,4.977388,
4.849,4.974757,
4.85,4.973113,
4.851,4.975744,
4.852,4.976401,
4.853,4.97673,
4.854,4.9741,
4.855,4.974757,
4.856,4.976401,
4.857,4.976072,
4.858,4.9741,
4.859,4.973771,
4.86,4.973771,
4.861,4.975415,
4.862,4.974757,
4.863,4.9741,
4.864,4.971798,
4.865,4.972785,
4.866,4.974428,
4.867,4.971798,
4.868,4.972127,
4.869,4.9741,
4.87,4.974757,
4.871,4.974757,
4.872,4.973113,
4.873,4.973771,
4.874,4.975086,
4.875,4.973113,
4.876,4.973113,
4.877,4.974757,
4.878,4.977059,
4.879,4.977716,
4.88,4.97673,
4.881,4.97673,
4.882,4.978374,
4.883,4.978045,
4.884,4.975744,
4.885,4.977716,
4.886,4.980347,
4.887,4.97936,
4.888,4.977716,
4.889,4.977388,
4.89,4.978045,
4.891,4.980347,
4.892,4.977716,
4.893,4.976401,
4.894,4.978374,
4.895,4.979032,
4.896,4.979689,
4.897,4.97673,
4.898,4.974757,
4.899,4.97673,
4.9,4.977059,
4.901,4.973771,
4.902,4.974757,
4.903,4.97673,
4.904,4.977388,
4.905,4.976072,
4.906,4.973771,
4.907,4.975744,
4.908,4.976072,
4.909,4.975744,
4.91,4.974757,
4.911,4.975086,
4.912,4.977388,
4.913,4.976401,
4.914,4.973442,
4.915,4.9741,
4.916,4.976072,
4.917,4.977388,
4.918,4.976072,
4.919,4.975086,
4.92,4.978045,
4.921,4.979032,
4.922,4.977059,
4.923,4.9741,
4.924,4.975086,
4.925,4.977388,
4.926,4.978703,
4.927,4.975744,
4.928,4.976072,
4.929,4.977716,
4.93,4.978374,
4.931,4.975415,
4.932,4.9741,
4.933,4.975744,
4.934,4.976401,
4.935,4.975086,
4.936,4.974428,
4.937,4.974757,
4.938,4.975744,
4.939,4.973771,
4.94,4.971141,
4.941,4.972456,
4.942,4.974428,
4.943,4.973442,
4.944,4.972785,
4.945,4.972785,
4.946,4.976072,
4.947,4.9741,
4.948,4.971141,
4.949,4.972127,
4.95,4.974428,
4.951,4.974757,
4.952,4.972456,
4.953,4.972127,
4.954,4.97673,
4.955,4.977388,
4.956,4.975744,
4.957,4.973113,
4.958,4.9741,
4.959,4.978045,
4.96,4.977716,
4.961,4.9741,
4.962,4.976072,
4.963,4.977388,
4.964,4.977716,
4.965,4.975415,
4.966,4.973771,
4.967,4.975415,
4.968,4.97673,
4.969,4.975744,
4.97,4.974757,
4.971,4.975086,
4.972,4.977716,
4.973,4.975415,
4.974,4.972456,
4.975,4.972127,
4.976,4.9741,
4.977,4.974428,
4.978,4.973771,
4.979,4.972785,
4.98,4.975744,
4.981,4.973771,
4.982,4.972785,
4.983,4.972127,
4.984,4.973771,
4.985,4.974757,
4.986,4.973771,
4.987,4.972785,
4.988,4.975086,
4.989,4.975744,
4.99,4.973442,
4.991,4.973113,
4.992,4.9741,
4.993,4.976401,
4.994,4.977716,
4.995,4.975415,
4.996,4.97673,
4.997,4.978374,
4.998,4.977716,
4.999,4.977059,
5,4.974428,
5.001,4.976401,
5.002,4.977716,
5.003,4.978703,
5.004,4.977059,
5.005,4.977388,
5.006,4.978703,
5.007,4.979032,
5.008,4.977716,
5.009,4.975744,
5.01,4.978045,
5.011,4.97936,
5.012,4.977059,
5.013,4.97673,
5.014,4.975744,
5.015,4.975086,
5.016,4.975744,
5.017,4.973771,
5.018,4.974757,
5.019,4.976401,
5.02,4.97673,
5.021,4.975415,
5.022,4.975415,
5.023,4.976401,
5.024,4.976401,
5.025,4.9741,
5.026,4.9741,
5.027,4.976401,
5.028,4.977388,
5.029,4.977388,
5.03,4.975415,
5.031,4.977059,
5.032,4.978045,
5.033,4.977059,
5.034,4.97673,
5.035,4.977388,
5.036,4.980018,
5.037,4.980676,
5.038,4.977716,
5.039,4.977716,
5.04,4.979032,
5.041,4.980347,
5.042,4.977388,
5.043,4.977388,
5.044,4.979689,
5.045,4.980676,
5.046,4.979689,
5.047,4.977059,
5.048,4.977388,
5.049,4.977716,
5.05,4.97673,
5.051,4.975086,
5.052,4.975744,
5.053,4.977716,
5.054,4.977059,
5.055,4.975415,
5.056,4.975086,
5.057,4.975415,
5.058,4.97673,
5.059,4.975086,
5.06,4.9741,
5.061,4.97673,
5.062,4.977716,
5.063,4.976401,
5.064,4.9741,
5.065,4.972785,
5.066,4.975744,
5.067,4.97673,
5.068,4.9741,
5.069,4.975086,
5.07,4.977716,
5.071,4.978045,
5.072,4.97673,
5.073,4.973442,
5.074,4.975744,
5.075,4.977716,
5.076,4.976401,
5.077,4.974428,
5.078,4.975415,
5.079,4.977059,
5.08,4.978045,
5.081,4.975086,
5.082,4.9741,
5.083,4.975415,
5.084,2.679451,
5.085,0.105336,
5.086,0.090212,
5.087,0.087253,
5.088,0.086924,
5.089,0.086924,
5.09,0.086924,
5.091,0.086595,
5.092,0.086595,
5.093,0.086924,
5.094,0.086924,
5.095,0.086924,
5.096,0.086595,
5.097,0.087253,
5.098,0.087253,
5.099,0.087253,
5.1,0.087253,
5.101,0.087253,
5.102,0.087253,
5.103,0.086924,
5.104,0.087253,
5.105,0.087582,
5.106,0.087253,
5.107,0.086924,
5.108,0.086924,
5.109,0.086924,
5.11,0.086595,
5.111,0.086595,
5.112,0.086924,
5.113,0.086595,
5.114,0.086924,
5.115,0.087253,
5.116,0.086924,
5.117,0.086924,
5.118,0.087253,
5.119,0.087253,
5.12,0.086595,
5.121,0.086595,
5.122,0.087253,
5.123,0.086595,
5.124,0.086924,
5.125,0.086266,
5.126,0.086595,
5.127,0.086595,
5.128,0.086924,
5.129,0.086266,
5.13,0.086595,
5.131,0.086924,
5.132,0.086595,
5.133,0.086924,
5.134,0.087253,
5.135,0.086924,
5.136,0.087253,
5.137,0.086266,
5.138,0.086924,
5.139,0.087582,
5.14,0.086595,
5.141,0.086924,
5.142,0.086595,
5.143,0.086924,
5.144,0.086595,
5.145,0.086924,
5.146,0.086924,
5.147,0.086266,
5.148,0.086595,
5.149,0.086924,
5.15,0.086266,
5.151,0.086924,
5.152,0.086924,
5.153,0.086266,
5.154,0.086595,
5.155,0.087253,
5.156,0.089554,
5.157,0.093829,
5.158,0.103035,
5.159,0.126708,
5.16,4.574287,
5.161,4.978703,
5.162,4.976401,
5.163,4.975086,
5.164,4.974428,
5.165,4.976401,
5.166,4.975086,
5.167,4.973113,
5.168,4.973442,
5.169,4.975744,
5.17,4.975415,
5.171,4.972456,
5.172,4.972456,
5.173,4.973771,
5.174,4.975415,
5.175,4.972785,
5.176,4.972127,
5.177,4.9741,
5.178,4.976072,
5.179,4.9741,
5.18,4.972456,
5.181,4.972456,
5.182,4.973771,
5.183,4.975086,
5.184,4.973113,
5.185,4.973771,
5.186,4.976072,
5.187,4.977059,
5.188,4.976072,
5.189,4.975086,
5.19,4.975415,
5.191,4.976401,
5.192,4.976072,
5.193,4.974757,
5.194,4.97673,
5.195,4.978374,
5.196,4.977716,
5.197,4.975744,
5.198,4.974428,
5.199,4.977059,
5.2,4.97673,
5.201,4.973442,
5.202,4.9741,
5.203,4.976401,
5.204,4.976401,
5.205,4.973771,
5.206,4.971141,
5.207,4.973771,
5.208,4.974757,
5.209,4.973442,
5.21,4.972127,
5.211,4.971798,
5.212,4.975086,
5.213,4.976072,
5.214,4.972456,
5.215,4.972127,
5.216,4.973771,
5.217,4.974428,
5.218,4.973113,
5.219,4.972127,
5.22,4.974428,
5.221,4.97673,
5.222,4.975744,
5.223,4.973113,
5.224,4.9741,
5.225,4.976072,
5.226,4.978374,
5.227,4.974757,
5.228,4.976072,
5.229,4.977059,
5.23,4.978703,
5.231,4.976072,
5.232,4.973442,
5.233,4.975086,
5.234,4.977716,
5.235,4.975744,
5.236,4.975744,
5.237,4.976072,
5.238,4.977716,
5.239,4.978703,
5.24,4.973771,
5.241,4.9741,
5.242,4.976072,
5.243,4.976401,
5.244,4.975744,
5.245,4.9741,
5.246,4.974757,
5.247,4.977388,
5.248,4.975086,
5.249,4.972456,
5.25,4.972456,
5.251,4.975415,
5.252,4.976401,
5.253,4.974428,
5.254,4.973771,
5.255,4.97673,
5.256,4.977388,
5.257,4.977059,
5.258,4.9741,
5.259,4.975415,
5.26,4.978045,
5.261,4.979032,
5.262,4.977716,
5.263,4.977388,
5.264,4.978703,
5.265,4.979689,
5.266,4.977716,
5.267,4.977388,
5.268,4.977716,
5.269,4.980018,
5.27,4.978374,
5.271,4.978374,
5.272,4.977059,
5.273,4.978703,
5.274,4.97936,
5.275,4.978045,
5.276,4.977059,
5.277,4.978703,
5.278,4.979032,
5.279,4.977388,
5.28,4.97673,
5.281,4.97673,
5.282,4.977059,
5.283,4.976401,
5.284,4.972785,
5.285,4.974757,
5.286,4.977059,
5.287,4.976401,
5.288,4.975086,
5.289,4.974757,
5.29,4.975744,
5.291,4.977059,
5.292,4.973442,
5.293,4.973771,
5.294,4.97673,
5.295,4.977388,
5.296,4.976401,
5.297,4.974428,
5.298,4.975415,
5.299,4.978374,
5.3,4.977716,
5.301,4.976401,
5.302,4.977388,
5.303,4.97936,
5.304,4.981333,
5.305,4.978045,
5.306,4.977388,
5.307,4.977716,
5.308,4.979032,
5.309,4.97936,
5.31,4.97673,
5.311,4.977716,
5.312,4.979689,
5.313,4.978703,
5.314,4.977716,
5.315,4.975415,
5.316,4.977059,
5.317,4.977388,
5.318,4.976072,
5.319,4.974757,
5.32,4.975415,
5.321,4.976072,
5.322,4.97673,
5.323,4.973442,
5.324,4.972456,
5.325,4.975086,
5.326,4.97673,
5.327,4.975415,
5.328,4.9741,
5.329,4.976072,
5.33,4.977059,
5.331,4.973771,
5.332,4.972127,
5.333,4.972785,
5.334,4.976072,
5.335,4.976401,
5.336,4.973442,
5.337,4.974428,
5.338,4.978045,
5.339,4.977716,
5.34,4.974757,
5.341,4.973771,
5.342,4.975415,
5.343,4.977059,
5.344,4.976401,
5.345,4.975744,
5.346,4.975744,
5.347,4.977059,
5.348,4.975415,
5.349,4.973113,
5.35,4.975086,
5.351,4.977059,
5.352,4.975744,
5.353,4.975086,
5.354,4.975086,
5.355,4.976401,
5.356,4.975744,
5.357,4.972456,
5.358,4.971798,
5.359,4.973771,
5.36,4.974757,
5.361,4.975086,
5.362,4.971469,
5.363,4.972785,
5.364,4.974757,
5.365,4.973113,
5.366,4.971798,
5.367,4.971469,
5.368,4.973771,
5.369,4.974757,
5.37,4.973771,
5.371,4.973113,
5.372,4.972785,
5.373,4.9741,
5.374,4.975415,
5.375,4.973113,
5.376,4.9741,
5.377,4.975744,
5.378,4.977716,
5.379,4.978045,
5.38,4.975086,
5.381,4.975086,
5.382,4.976401,
5.383,4.977059,
5.384,4.975415,
5.385,4.975086,
5.386,4.976401,
5.387,4.978045,
5.388,4.975744,
5.389,4.975086,
5.39,4.975744,
5.391,4.975744,
5.392,4.974757,
5.393,4.974757,
5.394,4.975086,
5.395,4.97673,
5.396,4.975415,
5.397,4.973771,
5.398,4.9741,
5.399,4.974757,
5.4,4.974428,
5.401,4.972456,
5.402,4.973771,
5.403,4.976072,
5.404,4.975415,
5.405,4.975415,
5.406,4.973771,
5.407,4.974428,
5.408,4.977059,
5.409,4.975744,
5.41,4.9741,
5.411,4.975744,
5.412,4.978045,
5.413,4.978374,
5.414,4.97673,
5.415,4.975086,
5.416,4.977716,
5.417,4.979689,
5.418,4.97673,
5.419,4.976401,
5.42,4.977716,
5.421,4.980347,
5.422,4.979689,
5.423,4.975415,
5.424,4.976401,
5.425,4.979032,
5.426,4.980018,
5.427,4.977716,
5.428,4.976401,
5.429,4.980018,
5.43,4.97936,
5.431,4.976401,
5.432,4.975415,
5.433,4.977059,
5.434,4.97673,
5.435,4.975086,
5.436,4.974428,
5.437,4.977716,
5.438,4.97673,
5.439,4.973771,
5.44,4.973113,
5.441,4.975744,
5.442,4.97673,
5.443,4.9741,
5.444,4.973771,
5.445,4.975744,
5.446,4.976401,
5.447,4.976072,
5.448,4.972127,
5.449,4.972127,
5.45,4.975744,
5.451,4.976072,
5.452,4.975744,
5.453,4.975415,
5.454,4.977388,
5.455,4.978374,
5.456,4.976072,
5.457,4.974428,
5.458,4.974428,
5.459,4.97673,
5.46,4.978045,
5.461,4.976072,
5.462,4.974757,
5.463,4.976072,
5.464,4.977388,
5.465,4.975415,
5.466,4.973442,
5.467,4.9741,
5.468,4.976072,
5.469,4.976072,
5.47,4.973771,
5.471,4.973442,
5.472,4.975086,
5.473,4.974757,
5.474,4.972127,
5.475,4.971469,
5.476,4.973771,
5.477,4.9741,
5.478,4.974428,
5.479,4.973113,
5.48,4.973771,
5.481,4.974757,
5.482,4.973771,
5.483,4.971469,
5.484,4.972785,
5.485,4.974757,
5.486,4.975415,
5.487,4.973113,
5.488,4.973113,
5.489,4.975415,
5.49,4.976072,
5.491,4.975744,
5.492,4.974757,
5.493,4.974757,
5.494,4.977388,
5.495,4.979032,
5.496,4.977388,
5.497,4.97673,
5.498,4.976072,
5.499,4.977716,
5.5,4.977059,
5.501,4.974757,
5.502,4.97673,
5.503,4.97936,
5.504,4.978703,
5.505,4.977059,
5.506,4.975744,
5.507,4.977388,
5.508,4.978374,
5.509,4.975744,
5.51,4.975086,
5.511,4.974757,
5.512,4.978045,
5.513,4.977716,
5.514,4.9741,
5.515,4.973771,
5.516,4.976401,
5.517,4.976401,
5.518,4.974757,
5.519,4.974757,
5.52,4.976401,
5.521,4.977716,
5.522,4.976072,
5.523,4.9741,
5.524,4.976401,
5.525,4.977716,
5.526,4.975415,
5.527,4.975415,
5.528,4.977059,
5.529,4.979689,
5.53,4.979689,
5.531,4.976072,
5.532,4.975415,
5.533,4.978045,
5.534,4.97936,
5.535,4.977059,
5.536,4.97673,
5.537,4.978045,
5.538,4.979689,
5.539,4.978374,
5.54,4.975086,
5.541,4.975415,
5.542,4.978374,
5.543,4.978374,
5.544,4.97673,
5.545,4.975744,
5.546,4.974757,
5.547,4.977716,
5.548,4.974757,
5.549,0.145778,
5.55,0.101062,
5.551,0.091527,
5.552,0.088239,
5.553,0.086924,
5.554,0.087253,
5.555,0.086595,
5.556,0.086266,
5.557,0.086595,
5.558,0.086924,
5.559,0.087253,
5.56,0.086595,
5.561,0.086924,
5.562,0.086595,
5.563,0.086595,
5.564,0.086595,
5.565,0.087253,
5.566,0.086924,
5.567,0.086924,
5.568,0.087253,
5.569,0.086595,
5.57,0.086924,
5.571,0.086924,
5.572,0.087253,
5.573,0.086595,
5.574,0.086924,
5.575,0.086595,
5.576,0.086266,
5.577,0.086595,
5.578,0.086924,
5.579,0.086595,
5.58,0.086595,
5.581,0.087582,
5.582,0.086924,
5.583,0.086595,
5.584,0.086924,
5.585,0.086595,
5.586,0.086924,
5.587,0.086595,
5.588,0.086595,
5.589,0.086595,
5.59,0.086266,
5.591,0.086924,
5.592,0.086595,
5.593,0.086595,
5.594,0.086924,
5.595,0.087253,
5.596,0.086924,
5.597,0.086924,
5.598,0.087253,
5.599,0.086924,
5.6,0.086595,
5.601,0.086924,
5.602,0.087253,
5.603,0.086924,
5.604,0.086924,
5.605,0.086924,
5.606,0.086595,
5.607,0.086595,
5.608,0.087253,
5.609,0.087253,
5.61,0.086595,
5.611,0.086924,
5.612,0.086595,
5.613,0.086595,
5.614,0.086595,
5.615,0.086595,
5.616,0.086595,
5.617,0.086924,
5.618,0.086595,
5.619,0.086595,
5.62,0.086595,
5.621,0.086924,
5.622,0.086595,
5.623,0.086595,
5.624,0.095144,
5.625,0.13164,
5.626,4.968839,
5.627,4.972127,
5.628,4.975415,
5.629,4.974757,
5.63,4.9741,
5.631,4.971798,
5.632,4.972456,
5.633,4.974428,
5.634,4.973113,
5.635,4.971798,
5.636,4.974757,
5.637,4.975086,
5.638,4.975415,
5.639,4.971798,
5.64,4.972785,
5.641,4.976401,
5.642,4.976401,
5.643,4.9741,
5.644,4.975415,
5.645,4.978045,
5.646,4.981333,
5.647,4.977388,
5.648,4.975086,
5.649,4.977059,
5.65,4.977388,
5.651,4.97673,
5.652,4.975744,
5.653,4.978374,
5.654,4.978703,
5.655,4.977388,
5.656,4.975415,
5.657,4.976072,
5.658,4.977716,
5.659,4.977388,
5.66,4.973771,
5.661,4.975415,
5.662,4.977716,
5.663,4.977716,
5.664,4.975086,
5.665,4.972127,
5.666,4.974428,
5.667,4.976072,
5.668,4.974428,
5.669,4.973113,
5.67,4.974757,
5.671,4.977059,
5.672,4.977388,
5.673,4.973771,
5.674,4.973771,
5.675,4.976072,
5.676,4.977716,
5.677,4.975086,
5.678,4.975086,
5.679,4.97673,
5.68,4.980018,
5.681,4.976401,
5.682,4.975415,
5.683,4.975744,
5.684,4.979689,
5.685,4.979032,
5.686,4.977716,
5.687,4.977388,
5.688,4.979689,
5.689,4.979032,
5.69,4.977716,
5.691,4.977059,
5.692,4.978374,
5.693,4.980018,
5.694,4.978374,
5.695,4.978045,
5.696,4.978374,
5.697,4.980018,
5.698,4.978374,
5.699,4.975086,
5.7,4.975744,
5.701,4.977059,
5.702,4.977388,
5.703,4.975744,
5.704,4.974757,
5.705,4.976072,
5.706,4.977059,
5.707,4.974428,
5.708,4.972785,
5.709,4.975086,
5.71,4.977388,
5.711,4.97673,
5.712,4.974428,
5.713,4.974428,
5.714,4.97673,
5.715,4.975744,
5.716,4.974428,
5.717,4.973113,
5.718,4.976072,
5.719,4.97936,
5.72,4.97673,
5.721,4.976401,
5.722,4.97673,
5.723,4.978374,
5.724,4.978045,
5.725,4.977059,
5.726,4.975744,
5.727,4.978374,
5.728,4.978045,
5.729,4.979032,
5.73,4.976401,
5.731,4.976072,
5.732,4.977388,
5.733,4.978374,
5.734,4.975744,
5.735,4.976072,
5.736,4.977716,
5.737,4.978703,
5.738,4.975415,
5.739,4.973113,
5.74,4.974428,
5.741,4.974428,
5.742,4.975415,
5.743,4.973113,
5.744,4.973113,
5.745,4.976072,
5.746,4.975086,
5.747,4.973442,
5.748,4.972127,
5.749,4.9741,
5.75,4.975744,
5.751,4.973442,
5.752,4.972785,
5.753,4.977059,
5.754,4.977059,
5.755,4.975744,
5.756,4.973442,
5.757,4.9741,
5.758,4.977716,
5.759,4.977716,
5.76,4.975086,
5.761,4.975744,
5.762,4.978045,
5.763,4.978703,
5.764,4.976401,
5.765,4.973771,
5.766,4.975086,
5.767,4.977388,
5.768,4.977388,
5.769,4.975744,
5.77,4.975086,
5.771,4.977716,
5.772,4.977716,
5.773,4.973771,
5.774,4.973113,
5.775,4.975415,
5.776,4.974757,
5.777,4.973442,
5.778,4.973113,
5.779,4.975415,
5.78,4.975744,
5.781,4.972127,
5.782,4.971469,
5.783,4.973771,
5.784,4.974757,
5.785,4.972785,
5.786,4.972456,
5.787,4.975086,
5.788,4.977059,
5.789,4.972785,
5.79,4.971469,
5.791,4.973442,
5.792,4.975086,
5.793,4.974428,
5.794,4.973442,
5.795,4.975744,
5.796,4.978045,
5.797,4.978045,
5.798,4.974757,
5.799,4.974428,
5.8,4.977388,
5.801,4.978045,
5.802,4.975744,
5.803,4.976401,
5.804,4.978374,
5.805,4.979689,
5.806,4.976401,
5.807,4.976072,
5.808,4.977059,
5.809,4.979032,
5.81,4.979032,
5.811,4.977388,
5.812,4.97673,
5.813,4.97936,
5.814,4.978045,
5.815,4.975415,
5.816,4.974757,
5.817,4.976072,
5.818,4.977388,
5.819,4.975415,
5.82,4.975086,
5.821,4.977059,
5.822,4.977059,
5.823,4.974757,
5.824,4.973442,
5.825,4.974428,
5.826,4.977716,
5.827,4.976401,
5.828,4.974757,
5.829,4.975744,
5.83,4.977716,
5.831,4.977059,
5.832,4.975415,
5.833,4.975415,
5.834,4.977716,
5.835,4.979689,
5.836,4.978374,
5.837,4.977059,
5.838,4.978374,
5.839,4.981004,
5.84,4.979032,
5.841,4.977716,
5.842,4.977059,
5.843,4.978374,
5.844,4.980018,
5.845,4.978374,
5.846,4.977059,
5.847,4.978374,
5.848,4.978045,
5.849,4.977059,
5.85,4.976072,
5.851,4.97673,
5.852,4.978703,
5.853,4.977059,
5.854,4.974757,
5.855,4.976401,
5.856,4.977059,
5.857,4.976401,
5.858,4.973771,
5.859,4.974428,
5.86,4.97673,
5.861,4.977059,
5.862,4.975744,
5.863,4.973442,
5.864,4.975415,
5.865,4.977716,
5.866,4.974757,
5.867,4.973442,
5.868,4.976072,
5.869,4.977059,
5.87,4.976401,
5.871,4.975744,
5.872,4.97673,
5.873,4.977716,
5.874,4.976072,
5.875,4.975086,
5.876,4.976072,
5.877,4.977716,
5.878,4.978045,
5.879,4.975415,
5.88,4.975744,
5.881,4.977059,
5.882,4.976072,
5.883,4.975415,
5.884,4.974428,
5.885,4.977388,
5.886,4.977716,
5.887,4.974757,
5.888,4.975086,
5.889,4.976401,
5.89,4.974757,
5.891,4.9741,
5.892,4.971798,
5.893,4.973442,
5.894,4.976072,
5.895,4.9741,
5.896,4.972785,
5.897,4.972785,
5.898,4.973113,
5.899,4.974757,
5.9,4.972127,
5.901,4.971798,
5.902,4.9741,
5.903,4.975415,
5.904,4.973442,
5.905,4.973442,
5.906,4.974428,
5.907,4.9741,
5.908,4.974757,
5.909,4.974757,
5.91,4.975415,
5.911,4.979032,
5.912,4.979689,
5.913,4.978374,
5.914,4.977388,
5.915,4.978045,
5.916,4.978374,
5.917,4.977716,
5.918,4.976401,
5.919,4.976401,
5.92,4.97936,
5.921,4.980018,
5.922,4.975744,
5.923,4.976072,
5.924,4.978045,
5.925,4.978045,
5.926,4.976401,
5.927,4.975086,
5.928,4.978045,
5.929,4.978703,
5.93,4.97673,
5.931,4.974428,
5.932,4.975086,
5.933,4.97673,
5.934,4.975086,
5.935,4.974428,
5.936,4.976072,
5.937,4.977716,
5.938,4.977716,
5.939,4.974428,
5.94,4.9741,
5.941,4.97673,
5.942,4.977388,
5.943,4.976072,
5.944,4.975086,
5.945,4.976072,
5.946,4.979032,
5.947,4.977716,
5.948,4.975744,
5.949,4.97673,
5.95,4.978703,
5.951,4.97936,
5.952,4.977059,
5.953,4.977716,
5.954,4.979689,
5.955,4.980676,
5.956,4.976401,
5.957,4.976401,
5.958,4.979032,
5.959,4.980018,
5.96,4.977716,
5.961,4.977388,
5.962,4.978703,
5.963,4.979032,
5.964,4.978374,
5.965,4.975415,
5.966,4.975744,
5.967,4.977716,
5.968,4.97673,
5.969,4.975415,
5.97,4.975744,
5.971,4.977388,
5.972,4.660431,
5.973,0.112241,
5.974,0.091856,
5.975,0.087253,
5.976,0.086924,
5.977,0.086924,
5.978,0.086266,
5.979,0.086924,
5.98,0.086595,
5.981,0.086595,
5.982,0.086924,
5.983,0.086924,
5.984,0.087253,
5.985,0.086924,
5.986,0.087253,
5.987,0.086924,
5.988,0.086595,
5.989,0.086595,
5.99,0.086266,
5.991,0.086924,
5.992,0.086266,
5.993,0.086595,
5.994,0.086595,
5.995,0.086595,
5.996,0.086595,
5.997,0.086924,
5.998,0.086595,
5.999,0.086924,
6,0.086924,
6.001,0.086924,
6.002,0.086924,
6.003,0.086924,
6.004,0.086595,
6.005,0.086924,
6.006,0.086595,
6.007,0.086595,
6.008,0.086924,
6.009,0.086924,
6.01,0.086595,
6.011,0.087253,
6.012,0.086595,
6.013,0.086924,
6.014,0.086924,
6.015,0.086595,
6.016,0.087253,
6.017,0.086924,
6.018,0.086924,
6.019,0.087582,
6.02,0.086595,
6.021,0.086266,
6.022,0.087253,
6.023,0.087253,
6.024,0.087582,
6.025,0.086924,
6.026,0.086924,
6.027,0.087253,
6.028,0.086924,
6.029,0.086924,
6.03,0.086595,
6.031,0.086595,
6.032,0.087253,
6.033,0.086595,
6.034,0.086924,
6.035,0.085938,
6.036,0.087253,
6.037,0.086924,
6.038,0.086595,
6.039,0.086595,
6.04,0.086595,
6.041,0.086595,
6.042,0.086266,
6.043,0.086595,
6.044,0.086924,
6.045,0.089554,
6.046,0.094486,
6.047,0.103035,
6.048,0.126379,
6.049,4.492417,
6.05,4.972127,
6.051,4.971798,
6.052,4.974428,
6.053,4.975086,
6.054,4.974428,
6.055,4.974428,
6.056,4.974428,
6.057,4.975415,
6.058,4.975744,
6.059,4.973113,
6.06,4.974757,
6.061,4.977716,
6.062,4.978045,
6.063,4.977716,
6.064,4.976401,
6.065,4.978374,
6.066,4.97936,
6.067,4.976072,
6.068,4.977716,
6.069,4.978703,
6.07,4.980347,
6.071,4.978703,
6.072,4.977059,
6.073,4.978045,
6.074,4.97936,
6.075,4.977716,
6.076,4.976401,
6.077,4.977388,
6.078,4.979032,
6.079,4.980347,
6.08,4.977716,
6.081,4.974757,
6.082,4.97673,
6.083,4.977716,
6.084,4.976072,
6.085,4.9741,
6.086,4.975744,
6.087,4.977716,
6.088,4.977059,
6.089,4.974757,
6.09,4.9741,
6.091,4.976401,
6.092,4.976401,
6.093,4.974757,
6.094,4.975744,
6.095,4.977388,
6.096,4.97673,
6.097,4.976072,
6.098,4.9741,
6.099,4.975744,
6.1,4.977716,
6.101,4.97673,
6.102,4.976401,
6.103,4.978374,
6.104,4.980347,
6.105,4.978703,
6.106,4.975744,
6.107,4.976072,
6.108,4.978045,
6.109,4.97936,
6.11,4.977059,
6.111,4.976072,
6.112,4.979032,
6.113,4.97936,
6.114,4.976072,
6.115,4.974757,
6.116,4.977059,
6.117,4.977716,
6.118,4.977388,
6.119,4.9741,
6.12,4.975086,
6.121,4.976401,
6.122,4.975086,
6.123,4.972456,
6.124,4.971798,
6.125,4.9741,
6.126,4.974428,
6.127,4.973771,
6.128,4.972456,
6.129,4.973771,
6.13,4.974428,
6.131,4.973113,
6.132,4.970812,
6.133,4.972785,
6.134,4.9741,
6.135,4.973771,
6.136,4.973113,
6.137,4.973771,
6.138,4.976072,
6.139,4.976401,
6.14,4.972785,
6.141,4.973442,
6.142,4.975415,
6.143,4.977716,
6.144,4.976401,
6.145,4.975415,
6.146,4.97673,
6.147,4.978703,
6.148,4.976401,
6.149,4.974757,
6.15,4.973771,
6.151,4.977059,
6.152,4.977059,
6.153,4.975415,
6.154,4.974428,
6.155,4.97673,
6.156,4.976401,
6.157,4.975086,
6.158,4.972785,
6.159,4.974428,
6.16,4.975086,
6.161,4.974428,
6.162,4.974428,
6.163,4.9741,
6.164,4.975086,
6.165,4.974757,
6.166,4.972456,
6.167,4.973113,
6.168,4.974428,
6.169,4.975415,
6.17,4.973771,
6.171,4.973771,
6.172,4.975086,
6.173,4.974757,
6.174,4.973113,
6.175,4.972785,
6.176,4.9741,
6.177,4.977059,
6.178,4.976072,
6.179,4.974428,
6.18,4.975744,
6.181,4.976401,
6.182,4.977059,
6.183,4.974757,
6.184,4.973771,
6.185,4.97673,
6.186,4.977716,
6.187,4.975415,
6.188,4.975744,
6.189,4.97673,
6.19,4.97673,
6.191,4.975744,
6.192,4.974428,
6.193,4.975415,
6.194,4.977388,
6.195,4.976072,
6.196,4.975415,
6.197,4.975415,
6.198,4.975744,
6.199,4.9741,
6.2,4.973113,
6.201,4.973113,
6.202,4.974757,
6.203,4.975744,
6.204,4.972785,
6.205,4.974428,
6.206,4.976072,
6.207,4.975744,
6.208,4.974428,
6.209,4.973771,
6.21,4.975086,
6.211,4.97673,
6.212,4.976401,
6.213,4.975415,
6.214,4.975744,
6.215,4.977059,
6.216,4.977716,
6.217,4.97673,
6.218,4.976401,
6.219,4.979032,
6.22,4.979689,
6.221,4.979032,
6.222,4.977716,
6.223,4.977059,
6.224,4.979689,
6.225,4.978045,
6.226,4.976072,
6.227,4.977716,
6.228,4.97936,
6.229,4.980347,
6.23,4.977716,
6.231,4.975744,
6.232,4.978045,
6.233,4.978045,
6.234,4.975086,
6.235,4.975086,
6.236,4.97673,
6.237,4.977059,
6.238,4.975744,
6.239,4.973442,
6.24,4.974428,
6.241,4.976072,
6.242,4.975086,
6.243,4.974757,
6.244,4.975415,
6.245,4.977388,
6.246,4.977716,
6.247,4.975086,
6.248,4.974757,
6.249,4.976072,
6.25,4.977059,
6.251,4.974757,
6.252,4.975086,
6.253,4.979032,
6.254,4.978703,
6.255,4.977059,
6.256,4.977716,
6.257,4.979032,
6.258,4.979689,
6.259,4.977059,
6.26,4.97673,
6.261,4.980018,
6.262,4.980018,
6.263,4.977059,
6.264,4.976401,
6.265,4.97673,
6.266,4.978374,
6.267,4.977059,
6.268,4.975086,
6.269,4.977059,
6.27,4.978374,
6.271,4.977388,
6.272,4.974757,
6.273,4.973113,
6.274,4.975415,
6.275,4.974428,
6.276,4.973113,
6.277,4.972785,
6.278,4.974428,
6.279,4.975086,
6.28,4.974428,
6.281,4.971798,
6.282,4.973113,
6.283,4.973771,
6.284,4.973771,
6.285,4.972127,
6.286,4.974428,
6.287,4.976072,
6.288,4.975086,
6.289,4.972456,
6.29,4.972127,
6.291,4.975086,
6.292,4.97673,
6.293,4.974428,
6.294,4.974428,
6.295,4.976072,
6.296,4.978045,
6.297,4.977059,
6.298,4.9741,
6.299,4.974757,
6.3,4.977059,
6.301,4.976072,
6.302,4.9741,
6.303,4.974757,
6.304,4.977059,
6.305,4.978374,
6.306,4.975415,
6.307,4.973113,
6.308,4.975415,
6.309,4.976401,
6.31,4.974428,
6.311,4.9741,
6.312,4.974428,
6.313,4.97673,
6.314,4.975415,
6.315,4.972127,
6.316,4.972456,
6.317,4.974428,
6.318,4.974757,
6.319,4.9741,
6.32,4.973113,
6.321,4.976401,
6.322,4.976401,
6.323,4.972785,
6.324,4.973442,
6.325,4.974757,
6.326,4.977388,
6.327,4.97673,
6.328,4.974428,
6.329,4.977059,
6.33,4.979689,
6.331,4.97673,
6.332,4.976072,
6.333,4.976072,
6.334,4.980347,
6.335,4.980676,
6.336,4.977059,
6.337,4.978374,
6.338,4.980676,
6.339,4.97936,
6.34,4.97673,
6.341,4.97673,
6.342,4.978374,
6.343,4.979689,
6.344,4.977388,
6.345,4.977059,
6.346,4.978045,
6.347,4.97936,
6.348,4.975744,
6.349,4.974428,
6.35,4.975415,
6.351,4.976072,
6.352,4.976072,
6.353,4.975415,
6.354,4.975744,
6.355,4.97673,
6.356,4.977388,
6.357,4.974428,
6.358,4.973113,
6.359,4.975744,
6.36,4.977716,
6.361,4.976401,
6.362,4.974757,
6.363,4.975086,
6.364,4.977388,
6.365,4.976401,
6.366,4.973771,
6.367,4.974757,
6.368,4.977716,
6.369,4.979032,
6.37,4.977716,
6.371,4.976072,
6.372,4.97673,
6.373,4.979032,
6.374,4.977716,
6.375,4.975415,
6.376,4.97673,
6.377,4.977059,
6.378,4.978045,
6.379,4.976401,
6.38,4.975744,
6.381,4.977388,
6.382,4.975744,
6.383,4.974757,
6.384,4.974757,
6.385,4.977059,
6.386,4.977059,
6.387,4.975086,
6.388,4.973113,
6.389,4.975086,
6.39,4.973442,
6.391,4.972127,
6.392,4.970812,
6.393,4.973442,
6.394,4.975415,
6.395,4.9741,
6.396,4.972127,
6.397,4.974428,
6.398,4.973771,
6.399,4.973771,
6.4,4.971141,
6.401,4.972127,
6.402,4.975086,
6.403,4.974757,
6.404,4.973113,
6.405,4.975415,
6.406,4.975744,
6.407,4.97673,
6.408,4.975086,
6.409,4.975415,
6.41,4.978045,
6.411,4.978045,
6.412,4.976401,
6.413,4.977059,
6.414,4.977716,
6.415,4.977716,
6.416,4.975744,
6.417,4.974757,
6.418,4.976072,
6.419,4.978045,
6.42,4.977059,
6.421,4.976072,
6.422,4.975415,
6.423,4.976401,
6.424,4.976072,
6.425,4.975086,
6.426,4.973771,
6.427,4.974428,
6.428,4.977388,
6.429,4.975744,
6.43,4.9741,
6.431,4.972456,
6.432,4.9741,
6.433,4.975415,
6.434,4.9741,
6.435,4.973113,
6.436,4.974757,
6.437,0.23225,
6.438,0.10698,
6.439,0.093171,
6.44,0.088897,
6.441,0.087253,
6.442,0.087253,
6.443,0.086595,
6.444,0.086924,
6.445,0.087253,
6.446,0.086924,
6.447,0.086595,
6.448,0.086595,
6.449,0.086924,
6.45,0.086924,
6.451,0.086924,
6.452,0.086924,
6.453,0.087253,
6.454,0.086924,
6.455,0.086924,
6.456,0.086924,
6.457,0.086595,
6.458,0.086595,
6.459,0.086266,
6.46,0.086266,
6.461,0.086595,
6.462,0.086924,
6.463,0.086595,
6.464,0.086595,
6.465,0.086595,
6.466,0.086924,
6.467,0.086924,
6.468,0.086924,
6.469,0.086924,
6.47,0.086595,
6.471,0.086595,
6.472,0.086924,
6.473,0.086924,
6.474,0.086924,
6.475,0.086924,
6.476,0.086924,
6.477,0.086924,
6.478,0.086595,
6.479,0.086924,
6.48,0.087253,
6.481,0.087253,
6.482,0.086595,
6.483,0.087253,
6.484,0.087253,
6.485,0.086595,
6.486,0.086595,
6.487,0.087253,
6.488,0.086266,
6.489,0.086924,
6.49,0.087253,
6.491,0.086924,
6.492,0.086595,
6.493,0.086924,
6.494,0.086924,
6.495,0.087253,
6.496,0.086924,
6.497,0.086595,
6.498,0.086924,
6.499,0.086924,
6.5,0.086924,
6.501,0.087253,
6.502,0.086595,
6.503,0.086595,
6.504,0.086595,
6.505,0.086595,
6.506,0.086924,
6.507,0.087582,
6.508,0.086924,
6.509,0.086924,
6.51,0.086595,
6.511,0.086595,
6.512,0.087253,
6.513,0.091198,
6.514,0.112241,
6.515,4.618674,
6.516,4.971798,
6.517,4.972127,
6.518,4.975744,
6.519,4.975415,
6.52,4.973442,
6.521,4.9741,
6.522,4.97673,
6.523,4.976401,
6.524,4.975744,
6.525,4.975086,
6.526,4.975086,
6.527,4.977388,
6.528,4.977388,
6.529,4.975415,
6.53,4.974757,
6.531,4.976401,
6.532,4.97673,
6.533,4.9741,
6.534,4.974428,
6.535,4.975415,
6.536,4.977716,
6.537,4.976401,
6.538,4.974428,
6.539,4.975744,
6.54,4.975744,
6.541,4.974428,
6.542,4.973113,
6.543,4.973113,
6.544,4.975415,
6.545,4.976072,
6.546,4.973771,
6.547,4.973113,
6.548,4.973771,
6.549,4.9741,
6.55,4.972127,
6.551,4.972456,
6.552,4.9741,
6.553,4.975744,
6.554,4.973113,
6.555,4.972127,
6.556,4.973442,
6.557,4.974757,
6.558,4.973442,
6.559,4.972127,
6.56,4.975415,
6.561,4.978045,
6.562,4.976072,
6.563,4.976401,
6.564,4.975744,
6.565,4.976072,
6.566,4.977059,
6.567,4.975744,
6.568,4.975744,
6.569,4.978374,
6.57,4.977716,
6.571,4.977388,
6.572,4.97673,
6.573,4.97673,
6.574,4.977388,
6.575,4.976401,
6.576,4.974757,
6.577,4.975744,
6.578,4.977388,
6.579,4.977059,
6.58,4.975744,
6.581,4.975086,
6.582,4.975744,
6.583,4.976401,
6.584,4.975415,
6.585,4.973771,
6.586,4.97673,
6.587,4.977716,
6.588,4.97673,
6.589,4.974757,
6.59,4.975086,
6.591,4.977059,
6.592,4.97673,
6.593,4.974757,
6.594,4.976401,
6.595,4.978374,
6.596,4.978703,
6.597,4.976401,
6.598,4.975415,
6.599,4.978703,
6.6,4.979032,
6.601,4.977388,
6.602,4.977716,
6.603,4.97936,
6.604,4.981004,
6.605,4.978703,
6.606,4.977059,
6.607,4.978703,
6.608,4.978703,
6.609,4.978045,
6.61,4.977388,
6.611,4.978045,
6.612,4.980347,
6.613,4.97936,
6.614,4.97673,
6.615,4.976401,
6.616,4.977388,
6.617,4.977716,
6.618,4.975086,
6.619,4.975086,
6.62,4.977716,
6.621,4.978374,
6.622,4.975086,
6.623,4.973442,
6.624,4.974428,
6.625,4.977388,
6.626,4.976072,
6.627,4.974428,
6.628,4.975086,
6.629,4.977388,
6.63,4.978045,
6.631,4.9741,
6.632,4.972785,
6.633,4.976072,
6.634,4.977388,
6.635,4.976401,
6.636,4.976072,
6.637,4.977716,
6.638,4.979689,
6.639,4.977059,
6.64,4.975744,
6.641,4.977716,
6.642,4.978045,
6.643,4.977716,
6.644,4.97673,
6.645,4.978045,
6.646,4.978703,
6.647,4.977059,
6.648,4.975086,
6.649,4.976072,
6.65,4.977388,
6.651,4.976401,
6.652,4.974757,
6.653,4.975415,
6.654,4.978045,
6.655,4.977716,
6.656,4.973442,
6.657,4.972785,
6.658,4.9741,
6.659,4.975744,
6.66,4.9741,
6.661,4.972456,
6.662,4.973113,
6.663,4.974757,
6.664,4.975744,
6.665,4.972456,
6.666,4.971798,
6.667,4.975415,
6.668,4.97673,
6.669,4.975086,
6.67,4.973113,
6.671,4.974428,
6.672,4.976401,
6.673,4.974428,
6.674,4.973442,
6.675,4.974757,
6.676,4.97673,
6.677,4.977716,
6.678,4.975744,
6.679,4.974757,
6.68,4.978045,
6.681,4.976401,
6.682,4.974428,
6.683,4.974757,
6.684,4.97673,
6.685,4.977059,
6.686,4.975086,
6.687,4.975415,
6.688,4.977716,
6.689,4.977059,
6.69,4.973771,
6.691,4.972785,
6.692,4.975086,
6.693,4.976072,
6.694,4.974428,
6.695,4.972456,
6.696,4.973771,
6.697,4.975415,
6.698,4.973771,
6.699,4.971469,
6.7,4.971798,
6.701,4.9741,
6.702,4.974757,
6.703,4.973442,
6.704,4.972456,
6.705,4.975086,
6.706,4.975086,
6.707,4.972456,
6.708,4.972127,
6.709,4.973113,
6.71,4.974428,
6.711,4.975415,
6.712,4.973771,
6.713,4.975415,
6.714,4.977388,
6.715,4.976401,
6.716,4.975086,
6.717,4.974428,
6.718,4.977388,
6.719,4.978045,
6.72,4.976072,
6.721,4.976401,
6.722,4.978045,
6.723,4.97673,
6.724,4.976072,
6.725,4.974757,
6.726,4.975744,
6.727,4.978703,
6.728,4.978374,
6.729,4.975086,
6.73,4.977388,
6.731,4.976401,
6.732,4.976072,
6.733,4.973771,
6.734,4.9741,
6.735,4.976072,
6.736,4.975744,
6.737,4.975086,
6.738,4.974757,
6.739,4.976401,
6.74,4.976401,
6.741,4.975086,
6.742,4.973442,
6.743,4.975744,
6.744,4.977388,
6.745,4.977059,
6.746,4.976401,
6.747,4.975086,
6.748,4.97673,
6.749,4.977059,
6.75,4.976072,
6.751,4.976072,
6.752,4.979032,
6.753,4.979689,
6.754,4.978703,
6.755,4.977388,
6.756,4.978045,
6.757,4.978374,
6.758,4.979032,
6.759,4.977388,
6.76,4.977059,
6.761,4.980347,
6.762,4.980676,
6.763,4.977716,
6.764,4.977388,
6.765,4.977716,
6.766,4.979032,
6.767,4.977716,
6.768,4.975744,
6.769,4.977716,
6.77,4.978703,
6.771,4.978374,
6.772,4.975086,
6.773,4.974428,
6.774,4.977388,
6.775,4.976072,
6.776,4.975086,
6.777,4.974428,
6.778,4.975744,
6.779,4.978374,
6.78,4.975744,
6.781,4.9741,
6.782,4.976072,
6.783,4.976401,
6.784,4.974757,
6.785,4.974757,
6.786,4.975744,
6.787,4.978703,
6.788,4.979032,
6.789,4.976401,
6.79,4.975415,
6.791,4.978374,
6.792,4.980018,
6.793,4.977059,
6.794,4.977716,
6.795,4.980676,
6.796,4.980676,
6.797,4.979032,
6.798,4.975744,
6.799,4.977388,
6.8,4.980347,
6.801,4.978045,
6.802,4.97673,
6.803,4.977716,
6.804,4.97936,
6.805,4.980018,
6.806,4.977059,
6.807,4.974428,
6.808,4.975086,
6.809,4.977059,
6.81,4.976401,
6.811,4.974428,
6.812,4.973113,
6.813,4.975086,
6.814,4.975415,
6.815,4.972127,
6.816,4.972127,
6.817,4.974428,
6.818,4.975744,
6.819,4.973442,
6.82,4.973771,
6.821,4.975415,
6.822,4.975086,
6.823,4.972127,
6.824,4.972127,
6.825,4.9741,
6.826,4.97673,
6.827,4.974757,
6.828,4.974757,
6.829,4.977388,
6.83,4.977716,
6.831,4.975744,
6.832,4.9741,
6.833,4.974757,
6.834,4.978045,
6.835,4.977059,
6.836,4.974428,
6.837,4.975086,
6.838,4.977059,
6.839,4.977059,
6.84,4.974428,
6.841,4.973771,
6.842,4.976072,
6.843,4.976401,
6.844,4.976401,
6.845,4.973442,
6.846,4.973113,
6.847,4.975415,
6.848,4.973442,
6.849,4.971798,
6.85,4.972127,
6.851,4.9741,
6.852,4.974757,
6.853,4.973442,
6.854,4.972456,
6.855,4.975415,
6.856,4.9741,
6.857,4.972785,
6.858,4.971469,
6.859,4.9741,
6.86,4.55982,
6.861,0.111912,
6.862,0.091856,
6.863,0.08791,
6.864,0.087582,
6.865,0.086595,
6.866,0.086924,
6.867,0.086595,
6.868,0.086595,
6.869,0.086595,
6.87,0.087253,
6.871,0.086595,
6.872,0.087582,
6.873,0.087253,
6.874,0.087253,
6.875,0.086595,
6.876,0.086595,
6.877,0.086924,
6.878,0.086595,
6.879,0.086924,
6.88,0.086595,
6.881,0.086924,
6.882,0.086924,
6.883,0.086924,
6.884,0.086595,
6.885,0.086595,
6.886,0.086924,
6.887,0.087253,
6.888,0.086924,
6.889,0.086595,
6.89,0.086595,
6.891,0.087253,
6.892,0.086924,
6.893,0.086924,
6.894,0.086595,
6.895,0.086924,
6.896,0.086924,
6.897,0.087253,
6.898,0.086266,
6.899,0.086924,
6.9,0.086595,
6.901,0.086266,
6.902,0.087253,
6.903,0.086924,
6.904,0.086924,
6.905,0.087253,
6.906,0.086924,
6.907,0.087253,
6.908,0.085938,
6.909,0.086595,
6.91,0.087253,
6.911,0.086924,
6.912,0.087253,
6.913,0.086595,
6.914,0.086924,
6.915,0.086595,
6.916,0.086595,
6.917,0.086595,
6.918,0.086924,
6.919,0.086924,
6.92,0.086595,
6.921,0.086266,
6.922,0.086595,
6.923,0.087253,
6.924,0.086924,
6.925,0.087253,
6.926,0.086595,
6.927,0.087253,
6.928,0.087253,
6.929,0.086595,
6.93,0.087253,
6.931,0.087253,
6.932,0.086595,
6.933,0.086924,
6.934,0.089883,
6.935,0.094486,
6.936,0.104021,
6.937,0.126708,
6.938,4.472361,
6.939,4.975744,
6.94,4.974428,
6.941,4.977059,
6.942,4.978703,
6.943,4.979689,
6.944,4.977059,
6.945,4.977388,
6.946,4.980347,
6.947,4.980347,
6.948,4.97673,
6.949,4.97673,
6.95,4.978374,
6.951,4.979689,
6.952,4.977716,
6.953,4.977059,
6.954,4.978703,
6.955,4.979689,
6.956,4.977388,
6.957,4.975744,
6.958,4.975086,
6.959,4.978045,
6.96,4.977716,
6.961,4.975744,
6.962,4.975086,
6.963,4.974757,
6.964,4.976401,
6.965,4.974428,
6.966,4.972785,
6.967,4.975086,
6.968,4.975744,
6.969,4.976401,
6.97,4.974428,
6.971,4.9741,
6.972,4.975415,
6.973,4.976072,
6.974,4.974757,
6.975,4.973113,
6.976,4.974428,
6.977,4.977388,
6.978,4.978045,
6.979,4.976072,
6.98,4.976401,
6.981,4.978374,
6.982,4.979032,
6.983,4.976401,
6.984,4.975744,
6.985,4.97936,
6.986,4.980347,
6.987,4.977716,
6.988,4.97673,
6.989,4.979032,
6.99,4.978703,
6.991,4.975744,
6.992,4.976401,
6.993,4.979689,
6.994,4.97936,
6.995,4.977388,
6.996,4.975415,
6.997,4.976401,
6.998,4.977059,
6.999,4.973442,
