LabVIEW Measurement,,
Writer_Version,2,
Reader_Version,2,
Separator,Tab,
Decimal_Separator,.,
Multi_Headings,Yes,
X_Columns,Multi,
Time_Pref,Absolute,
Operator,RHAYESHUER,
Date,2/19/2020,
Time,40:40.5,
***End_of_Header***,,
,,
Channels,1,
Samples,7000,
Date,2/19/2020,
Time,40:40.5,
Y_Unit_Label,Volts,
X_Dimension,Time,
X0,0.00E+00,
Delta_X,0.001,
***End_of_Header***,,
X_Value,Voltage,Comment
0,4.974757,81.4 cm
0.001,4.971141,
0.002,4.971141,
0.003,4.972456,
0.004,4.974428,
0.005,4.972785,
0.006,4.972127,
0.007,4.972785,
0.008,4.975415,
0.009,4.9741,
0.01,4.973113,
0.011,4.972785,
0.012,4.975415,
0.013,4.976072,
0.014,4.975415,
0.015,4.974428,
0.016,4.975415,
0.017,4.97673,
0.018,4.976072,
0.019,4.9741,
0.02,4.9741,
0.021,4.976072,
0.022,4.976072,
0.023,4.976401,
0.024,4.9741,
0.025,4.9741,
0.026,4.975744,
0.027,4.974757,
0.028,4.973113,
0.029,4.972785,
0.03,4.973771,
0.031,4.9741,
0.032,4.972127,
0.033,4.971141,
0.034,4.972127,
0.035,4.971141,
0.036,2.114914,
0.037,0.094486,
0.038,0.088568,
0.039,0.088239,
0.04,0.088239,
0.041,0.088239,
0.042,0.088239,
0.043,0.087582,
0.044,0.088239,
0.045,0.088568,
0.046,0.08791,
0.047,0.08791,
0.048,0.088568,
0.049,0.088239,
0.05,0.08791,
0.051,0.088239,
0.052,0.08791,
0.053,0.08791,
0.054,0.08791,
0.055,0.088239,
0.056,0.088239,
0.057,0.087582,
0.058,0.08791,
0.059,0.088239,
0.06,0.08791,
0.061,0.08791,
0.062,0.088239,
0.063,0.08791,
0.064,0.087582,
0.065,0.08791,
0.066,0.08791,
0.067,0.087582,
0.068,0.088239,
0.069,0.088239,
0.07,0.088568,
0.071,0.08791,
0.072,0.087253,
0.073,0.08791,
0.074,0.08791,
0.075,0.08791,
0.076,0.08791,
0.077,0.088239,
0.078,0.08791,
0.079,0.088239,
0.08,0.088568,
0.081,0.08791,
0.082,0.088239,
0.083,0.087582,
0.084,0.094815,
0.085,4.537462,
0.086,4.972456,
0.087,4.973771,
0.088,4.975086,
0.089,4.974757,
0.09,4.9741,
0.091,4.973771,
0.092,4.975415,
0.093,4.973771,
0.094,4.972785,
0.095,4.9741,
0.096,4.974757,
0.097,4.975744,
0.098,4.973442,
0.099,4.973442,
0.1,4.974428,
0.101,4.974428,
0.102,4.973442,
0.103,4.971469,
0.104,4.972785,
0.105,4.973442,
0.106,4.972456,
0.107,4.971469,
0.108,4.971798,
0.109,4.971469,
0.11,4.971798,
0.111,4.970483,
0.112,4.970154,
0.113,4.971141,
0.114,4.971798,
0.115,4.973113,
0.116,4.971798,
0.117,4.972456,
0.118,4.973113,
0.119,4.972785,
0.12,4.972127,
0.121,4.970812,
0.122,4.973113,
0.123,4.974757,
0.124,4.975086,
0.125,4.974428,
0.126,4.9741,
0.127,4.975744,
0.128,4.975415,
0.129,4.9741,
0.13,4.975744,
0.131,4.976072,
0.132,4.977059,
0.133,4.976401,
0.134,4.9741,
0.135,4.975415,
0.136,4.976401,
0.137,4.975744,
0.138,4.974757,
0.139,4.976072,
0.14,4.97673,
0.141,4.975744,
0.142,4.9741,
0.143,4.972127,
0.144,4.973442,
0.145,4.973442,
0.146,4.972456,
0.147,4.972127,
0.148,4.973442,
0.149,4.974428,
0.15,4.972127,
0.151,4.970483,
0.152,4.972456,
0.153,4.972785,
0.154,4.971798,
0.155,4.970812,
0.156,4.972456,
0.157,4.973113,
0.158,4.973442,
0.159,4.970154,
0.16,4.969825,
0.161,4.971141,
0.162,4.973771,
0.163,4.971469,
0.164,4.971798,
0.165,4.973113,
0.166,4.975086,
0.167,4.974757,
0.168,4.971469,
0.169,4.971798,
0.17,4.9741,
0.171,4.975744,
0.172,4.973771,
0.173,4.973442,
0.174,4.974757,
0.175,4.977716,
0.176,4.974757,
0.177,4.972785,
0.178,4.972785,
0.179,4.974757,
0.18,4.975086,
0.181,4.973771,
0.182,4.972456,
0.183,4.974757,
0.184,4.9741,
0.185,4.972456,
0.186,4.971469,
0.187,4.972127,
0.188,4.9741,
0.189,4.972785,
0.19,4.972785,
0.191,4.972456,
0.192,4.973113,
0.193,4.972456,
0.194,4.971141,
0.195,4.971798,
0.196,4.972785,
0.197,4.973771,
0.198,4.972127,
0.199,4.972456,
0.2,4.973113,
0.201,4.9741,
0.202,4.973442,
0.203,4.972785,
0.204,4.9741,
0.205,4.975744,
0.206,4.975744,
0.207,4.974428,
0.208,4.973113,
0.209,4.974428,
0.21,4.974428,
0.211,4.974428,
0.212,4.972456,
0.213,4.973442,
0.214,4.975744,
0.215,4.974757,
0.216,4.9741,
0.217,4.972456,
0.218,4.973113,
0.219,4.974428,
0.22,4.971798,
0.221,4.970812,
0.222,4.972127,
0.223,4.972127,
0.224,4.972456,
0.225,4.970483,
0.226,4.968839,
0.227,4.970812,
0.228,4.971469,
0.229,4.970812,
0.23,4.971141,
0.231,4.971798,
0.232,4.973442,
0.233,4.972456,
0.234,4.969825,
0.235,4.969497,
0.236,4.971469,
0.237,4.972127,
0.238,4.971798,
0.239,4.971141,
0.24,4.972785,
0.241,4.975744,
0.242,4.974428,
0.243,4.972127,
0.244,4.971469,
0.245,4.974428,
0.246,4.9741,
0.247,4.9741,
0.248,4.973771,
0.249,4.975415,
0.25,4.97673,
0.251,4.9741,
0.252,4.973113,
0.253,4.974428,
0.254,4.975086,
0.255,4.975415,
0.256,4.974428,
0.257,4.973771,
0.258,4.974757,
0.259,4.9741,
0.26,4.9741,
0.261,4.972127,
0.262,4.972127,
0.263,4.973771,
0.264,4.9741,
0.265,4.972456,
0.266,4.973113,
0.267,4.973442,
0.268,4.973771,
0.269,4.972456,
0.27,4.971469,
0.271,4.973113,
0.272,4.974757,
0.273,4.974428,
0.274,4.973113,
0.275,4.972456,
0.276,4.973442,
0.277,4.974428,
0.278,4.9741,
0.279,4.973442,
0.28,4.974757,
0.281,4.97673,
0.282,4.976401,
0.283,4.975415,
0.284,4.974757,
0.285,4.974757,
0.286,4.976072,
0.287,4.974757,
0.288,4.9741,
0.289,4.976072,
0.29,4.976401,
0.291,4.976401,
0.292,4.9741,
0.293,4.972127,
0.294,4.974757,
0.295,4.974757,
0.296,4.973113,
0.297,4.972456,
0.298,4.973771,
0.299,4.973113,
0.3,4.971469,
0.301,4.970154,
0.302,4.971141,
0.303,4.971469,
0.304,4.970812,
0.305,4.970483,
0.306,4.971141,
0.307,4.972127,
0.308,4.972785,
0.309,4.970154,
0.31,4.969825,
0.311,4.971798,
0.312,4.972456,
0.313,4.971141,
0.314,4.970483,
0.315,4.973771,
0.316,4.974757,
0.317,4.973113,
0.318,4.972127,
0.319,4.972785,
0.32,4.9741,
0.321,4.975086,
0.322,4.972127,
0.323,4.973113,
0.324,4.975086,
0.325,4.974757,
0.326,4.973771,
0.327,4.971798,
0.328,4.971798,
0.329,4.9741,
0.33,4.974757,
0.331,4.973442,
0.332,4.973113,
0.333,4.973771,
0.334,4.973771,
0.335,4.972127,
0.336,4.970483,
0.337,4.969825,
0.338,4.972127,
0.339,4.972785,
0.34,4.970812,
0.341,4.970812,
0.342,4.971798,
0.343,4.971469,
0.344,4.971141,
0.345,4.970483,
0.346,4.970812,
0.347,4.972127,
0.348,4.972456,
0.349,4.971141,
0.35,4.971141,
0.351,4.972456,
0.352,4.973442,
0.353,4.971469,
0.354,4.971798,
0.355,4.973771,
0.356,4.975415,
0.357,4.974757,
0.358,4.975086,
0.359,4.975086,
0.36,4.975086,
0.361,4.973771,
0.362,4.973113,
0.363,4.974428,
0.364,4.975744,
0.365,4.974428,
0.366,4.974428,
0.367,4.974757,
0.368,4.974428,
0.369,4.975086,
0.37,4.973442,
0.371,4.972456,
0.372,4.974428,
0.373,4.975086,
0.374,4.973113,
0.375,4.972456,
0.376,4.971469,
0.377,4.971798,
0.378,4.972456,
0.379,4.970483,
0.38,4.971469,
0.381,4.973113,
0.382,4.972127,
0.383,4.973113,
0.384,4.971469,
0.385,4.972127,
0.386,4.973442,
0.387,4.972456,
0.388,4.972456,
0.389,4.972456,
0.39,4.974428,
0.391,4.976401,
0.392,4.973771,
0.393,4.973442,
0.394,4.974428,
0.395,4.97673,
0.396,4.975744,
0.397,4.974428,
0.398,4.975086,
0.399,4.977059,
0.4,4.976401,
0.401,4.9741,
0.402,4.973771,
0.403,4.975415,
0.404,4.976401,
0.405,4.9741,
0.406,4.974757,
0.407,4.977059,
0.408,4.97673,
0.409,4.975086,
0.41,4.973442,
0.411,4.973442,
0.412,4.974428,
0.413,4.973113,
0.414,4.972456,
0.415,4.972785,
0.416,4.9741,
0.417,4.973771,
0.418,4.971141,
0.419,4.970812,
0.42,4.972456,
0.421,4.974428,
0.422,4.9741,
0.423,4.972456,
0.424,4.972127,
0.425,4.974428,
0.426,4.973442,
0.427,4.972785,
0.428,4.971469,
0.429,4.973113,
0.43,4.975415,
0.431,4.974757,
0.432,4.9741,
0.433,4.974428,
0.434,4.975086,
0.435,4.975086,
0.436,4.9741,
0.437,4.973442,
0.438,4.975744,
0.439,4.976072,
0.44,4.9741,
0.441,4.973442,
0.442,4.974757,
0.443,4.974757,
0.444,4.973113,
0.445,4.972456,
0.446,4.973442,
0.447,4.9741,
0.448,4.972785,
0.449,4.972127,
0.45,4.973771,
0.451,4.972127,
0.452,4.970483,
0.453,4.969497,
0.454,4.969825,
0.455,4.972127,
0.456,4.972785,
0.457,4.970812,
0.458,4.970483,
0.459,4.971469,
0.46,4.972127,
0.461,4.971798,
0.462,4.969825,
0.463,4.971141,
0.464,4.973442,
0.465,4.972456,
0.466,4.972456,
0.467,4.972456,
0.468,4.972785,
0.469,4.9741,
0.47,4.973113,
0.471,4.973771,
0.472,4.975086,
0.473,4.976072,
0.474,4.97673,
0.475,4.975415,
0.476,4.9741,
0.477,4.975415,
0.478,4.975415,
0.479,4.973771,
0.48,4.9741,
0.481,4.975086,
0.482,4.977716,
0.483,4.977059,
0.484,4.974428,
0.485,4.974757,
0.486,4.975415,
0.487,4.975415,
0.488,4.9741,
0.489,4.973113,
0.49,4.974757,
0.491,4.975086,
0.492,4.972785,
0.493,4.971469,
0.494,4.971798,
0.495,4.973771,
0.496,4.972456,
0.497,4.971798,
0.498,4.9741,
0.499,4.974757,
0.5,4.9741,
0.501,4.971141,
0.502,4.970812,
0.503,4.973113,
0.504,4.973113,
0.505,4.972127,
0.506,4.972456,
0.507,4.975086,
0.508,4.976072,
0.509,4.973113,
0.51,4.972127,
0.511,4.974428,
0.512,4.975744,
0.513,4.974757,
0.514,4.974428,
0.515,4.974428,
0.516,4.975415,
0.517,4.975415,
0.518,4.972127,
0.519,4.972127,
0.52,4.974428,
0.521,4.976072,
0.522,4.973442,
0.523,4.972127,
0.524,4.973442,
0.525,4.974757,
0.526,4.973113,
0.527,4.970812,
0.528,4.969825,
0.529,4.972127,
0.53,4.973113,
0.531,4.971141,
0.532,4.970483,
0.533,4.971798,
0.534,4.971798,
0.535,4.970483,
0.536,4.969825,
0.537,4.971141,
0.538,4.972456,
0.539,4.972127,
0.54,4.971141,
0.541,4.972456,
0.542,4.972456,
0.543,4.972456,
0.544,4.971469,
0.545,4.972127,
0.546,4.973771,
0.547,4.976072,
0.548,4.974428,
0.549,4.974757,
0.55,4.976072,
0.551,4.975415,
0.552,4.975415,
0.553,4.973771,
0.554,4.9741,
0.555,4.97673,
0.556,4.977059,
0.557,4.975415,
0.558,4.976072,
0.559,4.974757,
0.56,4.975415,
0.561,4.976072,
0.562,4.973113,
0.563,4.9741,
0.564,4.975744,
0.565,4.975086,
0.566,4.974428,
0.567,4.972785,
0.568,4.970812,
0.569,4.973442,
0.57,4.973771,
0.571,4.972127,
0.572,4.972127,
0.573,4.973771,
0.574,4.975415,
0.575,4.973113,
0.576,4.971141,
0.577,4.971469,
0.578,4.973442,
0.579,4.9741,
0.58,4.972127,
0.581,4.971469,
0.582,4.975086,
0.583,4.974757,
0.584,4.973771,
0.585,4.973113,
0.586,4.972127,
0.587,4.975744,
0.588,4.975744,
0.589,4.973442,
0.59,4.973771,
0.591,4.974757,
0.592,4.975086,
0.593,4.973771,
0.594,4.972127,
0.595,4.973113,
0.596,4.975086,
0.597,4.9741,
0.598,4.973442,
0.599,4.973113,
0.6,4.974757,
0.601,4.973113,
0.602,4.971141,
0.603,4.971469,
0.604,4.972127,
0.605,4.972456,
0.606,4.971141,
0.607,4.970154,
0.608,4.972127,
0.609,4.972456,
0.61,4.972127,
0.611,4.971141,
0.612,4.970154,
0.613,4.972456,
0.614,4.973771,
0.615,4.972456,
0.616,4.972456,
0.617,4.972127,
0.618,4.972785,
0.619,4.973771,
0.62,4.972456,
0.621,4.972785,
0.622,4.975415,
0.623,4.97673,
0.624,4.97673,
0.625,4.975086,
0.626,4.974757,
0.627,4.976401,
0.628,4.975415,
0.629,4.975086,
0.63,4.975744,
0.631,4.977059,
0.632,4.976401,
0.633,4.975744,
0.634,4.974428,
0.635,4.974428,
0.636,4.975415,
0.637,4.975086,
0.638,4.9741,
0.639,4.975086,
0.64,4.976072,
0.641,4.975086,
0.642,4.972456,
0.643,4.971141,
0.644,4.972127,
0.645,4.972785,
0.646,4.971141,
0.647,4.971469,
0.648,4.973113,
0.649,4.9741,
0.65,4.972127,
0.651,4.970154,
0.652,4.970812,
0.653,4.972785,
0.654,4.971798,
0.655,4.971141,
0.656,4.971469,
0.657,4.973771,
0.658,4.973771,
0.659,4.971141,
0.66,4.971798,
0.661,4.972456,
0.662,4.973771,
0.663,4.973442,
0.664,4.973113,
0.665,4.975086,
0.666,4.976401,
0.667,4.973113,
0.668,4.971798,
0.669,4.973113,
0.67,4.9741,
0.671,4.975415,
0.672,4.973113,
0.673,4.972785,
0.674,4.974428,
0.675,4.975086,
0.676,4.973771,
0.677,4.970812,
0.678,4.971798,
0.679,4.972785,
0.68,4.973113,
0.681,4.971141,
0.682,4.970154,
0.683,4.971798,
0.684,4.972127,
0.685,4.970483,
0.686,4.969497,
0.687,4.970483,
0.688,4.971469,
0.689,4.972785,
0.69,4.970812,
0.691,4.971798,
0.692,4.972127,
0.693,4.970483,
0.694,4.971141,
0.695,4.970483,
0.696,4.971141,
0.697,4.971798,
0.698,4.972785,
0.699,4.972456,
0.7,4.9741,
0.701,4.973442,
0.702,4.974428,
0.703,4.973113,
0.704,4.973113,
0.705,4.974428,
0.706,4.975744,
0.707,4.9741,
0.708,4.9741,
0.709,4.9741,
0.71,4.974428,
0.711,4.9741,
0.712,4.972456,
0.713,4.973113,
0.714,4.975415,
0.715,4.975744,
0.716,4.974428,
0.717,4.972456,
0.718,4.972127,
0.719,4.973113,
0.72,4.972785,
0.721,4.971469,
0.722,4.971469,
0.723,4.975086,
0.724,4.9741,
0.725,4.972456,
0.726,4.971798,
0.727,4.971798,
0.728,4.973442,
0.729,4.972456,
0.73,4.971469,
0.731,4.973771,
0.732,4.974428,
0.733,4.9741,
0.734,4.972456,
0.735,4.972127,
0.736,4.9741,
0.737,4.975086,
0.738,4.974428,
0.739,4.975086,
0.74,4.976401,
0.741,4.97673,
0.742,4.976072,
0.743,4.973771,
0.744,4.974428,
0.745,4.975744,
0.746,4.975744,
0.747,4.975415,
0.748,4.9741,
0.749,4.976401,
0.75,4.977716,
0.751,4.975086,
0.752,4.9741,
0.753,4.973771,
0.754,4.975415,
0.755,4.976072,
0.756,4.9741,
0.757,4.973113,
0.758,4.974428,
0.759,4.973771,
0.76,4.973113,
0.761,4.971469,
0.762,4.972785,
0.763,4.973771,
0.764,4.973113,
0.765,4.972785,
0.766,4.972127,
0.767,4.974428,
0.768,4.973442,
0.769,4.971798,
0.77,4.972127,
0.771,4.9741,
0.772,4.9741,
0.773,4.974757,
0.774,4.973442,
0.775,4.973113,
0.776,4.974428,
0.777,4.976072,
0.778,4.9741,
0.779,4.973771,
0.78,4.976072,
0.781,4.97673,
0.782,4.975744,
0.783,4.975744,
0.784,4.974428,
0.785,4.975086,
0.786,4.975744,
0.787,4.974757,
0.788,4.975415,
0.789,4.975744,
0.79,4.97673,
0.791,4.97673,
0.792,4.973442,
0.793,4.972785,
0.794,4.9741,
0.795,4.973771,
0.796,4.972456,
0.797,4.972127,
0.798,4.973113,
0.799,4.974428,
0.8,4.971798,
0.801,4.970483,
0.802,4.971141,
0.803,4.972456,
0.804,4.971469,
0.805,4.970483,
0.806,4.971798,
0.807,4.973113,
0.808,4.972785,
0.809,4.970483,
0.81,4.969497,
0.811,4.972127,
0.812,4.9741,
0.813,4.972456,
0.814,4.971798,
0.815,4.973442,
0.816,4.974757,
0.817,4.975415,
0.818,4.972127,
0.819,4.971798,
0.82,4.974757,
0.821,4.974757,
0.822,4.974757,
0.823,4.972785,
0.824,4.973771,
0.825,4.975415,
0.826,4.973771,
0.827,4.971469,
0.828,4.972785,
0.829,4.974428,
0.83,4.973771,
0.831,4.972456,
0.832,4.972456,
0.833,4.973442,
0.834,4.972456,
0.835,4.971798,
0.836,4.971141,
0.837,4.971469,
0.838,4.972127,
0.839,4.973442,
0.84,4.971798,
0.841,4.972127,
0.842,4.973442,
0.843,4.973442,
0.844,4.972127,
0.845,4.971141,
0.846,4.972785,
0.847,4.973771,
0.848,4.974757,
0.849,4.973442,
0.85,4.973113,
0.851,4.974757,
0.852,4.975086,
0.853,4.974428,
0.854,4.974428,
0.855,4.976401,
0.856,4.97673,
0.857,4.97673,
0.858,4.976401,
0.859,4.975744,
0.86,4.975744,
0.861,4.976401,
0.862,4.975086,
0.863,4.974428,
0.864,4.977059,
0.865,4.977388,
0.866,4.977059,
0.867,4.974428,
0.868,4.973771,
0.869,4.975086,
0.87,4.975415,
0.871,4.973442,
0.872,4.972785,
0.873,4.972456,
0.874,4.974428,
0.875,4.973771,
0.876,4.971141,
0.877,4.971469,
0.878,4.973442,
0.879,4.973771,
0.88,4.972127,
0.881,4.972456,
0.882,4.974757,
0.883,4.975086,
0.884,4.971798,
0.885,4.970812,
0.886,4.971141,
0.887,4.9741,
0.888,4.974428,
0.889,4.973113,
0.89,4.973442,
0.891,4.974428,
0.892,4.975086,
0.893,4.9741,
0.894,4.972127,
0.895,4.9741,
0.896,4.976401,
0.897,4.975086,
0.898,4.974428,
0.899,4.973442,
0.9,4.975415,
0.901,4.974428,
0.902,4.972785,
0.903,4.972456,
0.904,4.973771,
0.905,4.9741,
0.906,4.974757,
0.907,4.972456,
0.908,4.972785,
0.909,4.972785,
0.91,4.972456,
0.911,4.970483,
0.912,4.970154,
0.913,4.971141,
0.914,4.972456,
0.915,4.971469,
0.916,4.971469,
0.917,4.970483,
0.918,4.971141,
0.919,4.972127,
0.92,4.970154,
0.921,4.970154,
0.922,4.971798,
0.923,4.973113,
0.924,4.972785,
0.925,4.971469,
0.926,4.970812,
0.927,4.972785,
0.928,4.973113,
0.929,4.972127,
0.93,4.972785,
0.931,4.9741,
0.932,4.976072,
0.933,4.975744,
0.934,4.972785,
0.935,4.972127,
0.936,4.974428,
0.937,4.975415,
0.938,4.972785,
0.939,4.972785,
0.94,4.975744,
0.941,4.97673,
0.942,4.974757,
0.943,4.972456,
0.944,4.972456,
0.945,4.973771,
0.946,4.973113,
0.947,4.971141,
0.948,4.973113,
0.949,4.972785,
0.95,4.973771,
0.951,4.971798,
0.952,4.971141,
0.953,4.971469,
0.954,4.973442,
0.955,4.972785,
0.956,4.972456,
0.957,4.971798,
0.958,4.974428,
0.959,4.973771,
0.96,4.971798,
0.961,4.971469,
0.962,4.971798,
0.963,4.9741,
0.964,4.973771,
0.965,4.973113,
0.966,4.974757,
0.967,4.975744,
0.968,4.974757,
0.969,4.974757,
0.97,4.9741,
0.971,4.976401,
0.972,4.930041,
0.973,0.100076,
0.974,0.088897,
0.975,0.08791,
0.976,0.088239,
0.977,0.08791,
0.978,0.088239,
0.979,0.08791,
0.98,0.087253,
0.981,0.087253,
0.982,0.088239,
0.983,0.08791,
0.984,0.087582,
0.985,0.088568,
0.986,0.08791,
0.987,0.088239,
0.988,0.088568,
0.989,0.088239,
0.99,0.08791,
0.991,0.088239,
0.992,0.088239,
0.993,0.087582,
0.994,0.088239,
0.995,0.08791,
0.996,0.088239,
0.997,0.088239,
0.998,0.08791,
0.999,0.088239,
1,0.087582,
1.001,0.08791,
1.002,0.08791,
1.003,0.08791,
1.004,0.088239,
1.005,0.087582,
1.006,0.08791,
1.007,0.087582,
1.008,0.088239,
1.009,0.08791,
1.01,0.08791,
1.011,0.087582,
1.012,0.088239,
1.013,0.087582,
1.014,0.088568,
1.015,0.087582,
1.016,0.088239,
1.017,0.08791,
1.018,0.088568,
1.019,0.095473,
1.02,0.10698,
1.021,0.293734,
1.022,4.971469,
1.023,4.972127,
1.024,4.974428,
1.025,4.972785,
1.026,4.970812,
1.027,4.969168,
1.028,4.971141,
1.029,4.971798,
1.03,4.971141,
1.031,4.970483,
1.032,4.971798,
1.033,4.971469,
1.034,4.971141,
1.035,4.969825,
1.036,4.969168,
1.037,4.971798,
1.038,4.973113,
1.039,4.970483,
1.04,4.971141,
1.041,4.972456,
1.042,4.973771,
1.043,4.973442,
1.044,4.972456,
1.045,4.972127,
1.046,4.974428,
1.047,4.976072,
1.048,4.974428,
1.049,4.973442,
1.05,4.975744,
1.051,4.974428,
1.052,4.9741,
1.053,4.973113,
1.054,4.973442,
1.055,4.975744,
1.056,4.976401,
1.057,4.975415,
1.058,4.9741,
1.059,4.973771,
1.06,4.975086,
1.061,4.974428,
1.062,4.973442,
1.063,4.973113,
1.064,4.973771,
1.065,4.974428,
1.066,4.974428,
1.067,4.972456,
1.068,4.972456,
1.069,4.973771,
1.07,4.973113,
1.071,4.971798,
1.072,4.972456,
1.073,4.973771,
1.074,4.975086,
1.075,4.973442,
1.076,4.971469,
1.077,4.971798,
1.078,4.973771,
1.079,4.973113,
1.08,4.973113,
1.081,4.974428,
1.082,4.976401,
1.083,4.976401,
1.084,4.973771,
1.085,4.973113,
1.086,4.974428,
1.087,4.975744,
1.088,4.974428,
1.089,4.972456,
1.09,4.974428,
1.091,4.975086,
1.092,4.974428,
1.093,4.971469,
1.094,4.972127,
1.095,4.973771,
1.096,4.975415,
1.097,4.973113,
1.098,4.972456,
1.099,4.973771,
1.1,4.973771,
1.101,4.970483,
1.102,4.969497,
1.103,4.969497,
1.104,4.972127,
1.105,4.973113,
1.106,4.970483,
1.107,4.971469,
1.108,4.972456,
1.109,4.971798,
1.11,4.971141,
1.111,4.969497,
1.112,4.970812,
1.113,4.972456,
1.114,4.972456,
1.115,4.971798,
1.116,4.971469,
1.117,4.972456,
1.118,4.972456,
1.119,4.972785,
1.12,4.973113,
1.121,4.974757,
1.122,4.975415,
1.123,4.975086,
1.124,4.974757,
1.125,4.975415,
1.126,4.975415,
1.127,4.975086,
1.128,4.974428,
1.129,4.9741,
1.13,4.975415,
1.131,4.976401,
1.132,4.975086,
1.133,4.975744,
1.134,4.975744,
1.135,4.975086,
1.136,4.974428,
1.137,4.973113,
1.138,4.973113,
1.139,4.975415,
1.14,4.974428,
1.141,4.972127,
1.142,4.971469,
1.143,4.972456,
1.144,4.972785,
1.145,4.970483,
1.146,4.972127,
1.147,4.972127,
1.148,4.9741,
1.149,4.972785,
1.15,4.971141,
1.151,4.970812,
1.152,4.972785,
1.153,4.972456,
1.154,4.970483,
1.155,4.971798,
1.156,4.973771,
1.157,4.975086,
1.158,4.973442,
1.159,4.971798,
1.16,4.972456,
1.161,4.973771,
1.162,4.973771,
1.163,4.973113,
1.164,4.973113,
1.165,4.975744,
1.166,4.975086,
1.167,4.973442,
1.168,4.971141,
1.169,4.972127,
1.17,4.975086,
1.171,4.973113,
1.172,4.972456,
1.173,4.9741,
1.174,4.975744,
1.175,4.974757,
1.176,4.971798,
1.177,4.970812,
1.178,4.971798,
1.179,4.972456,
1.18,4.971469,
1.181,4.971141,
1.182,4.972785,
1.183,4.974428,
1.184,4.971141,
1.185,4.971141,
1.186,4.972456,
1.187,4.972785,
1.188,4.973113,
1.189,4.972127,
1.19,4.971798,
1.191,4.9741,
1.192,4.9741,
1.193,4.973113,
1.194,4.971469,
1.195,4.973442,
1.196,4.975744,
1.197,4.974757,
1.198,4.974428,
1.199,4.975086,
1.2,4.976401,
1.201,4.976072,
1.202,4.973771,
1.203,4.974428,
1.204,4.976401,
1.205,4.975744,
1.206,4.976072,
1.207,4.974428,
1.208,4.9741,
1.209,4.976401,
1.21,4.975415,
1.211,4.9741,
1.212,4.973442,
1.213,4.9741,
1.214,4.975744,
1.215,4.9741,
1.216,4.971141,
1.217,4.972127,
1.218,4.971798,
1.219,4.971798,
1.22,4.970483,
1.221,4.970483,
1.222,4.972456,
1.223,4.971798,
1.224,4.971469,
1.225,4.970812,
1.226,4.970154,
1.227,4.971798,
1.228,4.970812,
1.229,4.969497,
1.23,4.970483,
1.231,4.973113,
1.232,4.973113,
1.233,4.972127,
1.234,4.971469,
1.235,4.972456,
1.236,4.974428,
1.237,4.973442,
1.238,4.972127,
1.239,4.973442,
1.24,4.975415,
1.241,4.975415,
1.242,4.973442,
1.243,4.971469,
1.244,4.9741,
1.245,4.974428,
1.246,4.973113,
1.247,4.972127,
1.248,4.973771,
1.249,4.975415,
1.25,4.975086,
1.251,4.971469,
1.252,4.971141,
1.253,4.972127,
1.254,4.973113,
1.255,4.971798,
1.256,4.970483,
1.257,4.973113,
1.258,4.975086,
1.259,4.972456,
1.26,4.970483,
1.261,4.971141,
1.262,4.973113,
1.263,4.972785,
1.264,4.972127,
1.265,4.971798,
1.266,4.9741,
1.267,4.973771,
1.268,4.971141,
1.269,4.971798,
1.27,4.973771,
1.271,4.974757,
1.272,4.9741,
1.273,4.974428,
1.274,4.975086,
1.275,4.977388,
1.276,4.975415,
1.277,4.973771,
1.278,4.975086,
1.279,4.975744,
1.28,4.97673,
1.281,4.975086,
1.282,4.975744,
1.283,4.975086,
1.284,4.975415,
1.285,4.975086,
1.286,4.973442,
1.287,4.973771,
1.288,4.976072,
1.289,4.975415,
1.29,4.973771,
1.291,4.971469,
1.292,4.972456,
1.293,4.972456,
1.294,4.971141,
1.295,4.970483,
1.296,4.971141,
1.297,4.972785,
1.298,4.972456,
1.299,4.971141,
1.3,4.970154,
1.301,4.970812,
1.302,4.971141,
1.303,4.971798,
1.304,4.970154,
1.305,4.970812,
1.306,4.973113,
1.307,4.973113,
1.308,4.971798,
1.309,4.971141,
1.31,4.972785,
1.311,4.973771,
1.312,4.972127,
1.313,4.972785,
1.314,4.974757,
1.315,4.974757,
1.316,4.975086,
1.317,4.973442,
1.318,4.973113,
1.319,4.974428,
1.32,4.9741,
1.321,4.9741,
1.322,4.973771,
1.323,4.974428,
1.324,4.977059,
1.325,4.976072,
1.326,4.972456,
1.327,4.973771,
1.328,4.973771,
1.329,4.973442,
1.33,4.972127,
1.331,4.972127,
1.332,4.973771,
1.333,4.9741,
1.334,4.970812,
1.335,4.970812,
1.336,4.973113,
1.337,4.9741,
1.338,4.972456,
1.339,4.971798,
1.34,4.973442,
1.341,4.974428,
1.342,4.973442,
1.343,4.971469,
1.344,4.971469,
1.345,4.973771,
1.346,4.974428,
1.347,4.9741,
1.348,4.973113,
1.349,4.974428,
1.35,4.977388,
1.351,4.974428,
1.352,4.973113,
1.353,4.974757,
1.354,4.976401,
1.355,4.976072,
1.356,4.975415,
1.357,4.9741,
1.358,4.975744,
1.359,4.975744,
1.36,4.974428,
1.361,4.973771,
1.362,4.974757,
1.363,4.976072,
1.364,4.975744,
1.365,4.9741,
1.366,4.9741,
1.367,4.973771,
1.368,4.973442,
1.369,4.972127,
1.37,4.971469,
1.371,4.971469,
1.372,4.972785,
1.373,4.972785,
1.374,4.972127,
1.375,4.971469,
1.376,4.971469,
1.377,4.972127,
1.378,4.971141,
1.379,4.970483,
1.38,4.971798,
1.381,4.973113,
1.382,4.972785,
1.383,4.971141,
1.384,4.970812,
1.385,4.972127,
1.386,4.971798,
1.387,4.972785,
1.388,4.972127,
1.389,4.974428,
1.39,4.975744,
1.391,4.975086,
1.392,4.973113,
1.393,4.973442,
1.394,4.974757,
1.395,4.974757,
1.396,4.972785,
1.397,4.972785,
1.398,4.975086,
1.399,4.975744,
1.4,4.9741,
1.401,4.971469,
1.402,4.973442,
1.403,4.974428,
1.404,4.973442,
1.405,4.972127,
1.406,4.972456,
1.407,4.973113,
1.408,4.974428,
1.409,4.971469,
1.41,4.969825,
1.411,4.96851,
1.412,4.972456,
1.413,4.972785,
1.414,4.970812,
1.415,4.971798,
1.416,4.974428,
1.417,4.973113,
1.418,4.971798,
1.419,4.971141,
1.42,4.973442,
1.421,4.973771,
1.422,4.973442,
1.423,4.973113,
1.424,4.9741,
1.425,4.975086,
1.426,4.975415,
1.427,4.973771,
1.428,4.973771,
1.429,4.976401,
1.43,4.976072,
1.431,4.975086,
1.432,4.974428,
1.433,4.976072,
1.434,4.976072,
1.435,4.9741,
1.436,4.971798,
1.437,4.975415,
1.438,4.976072,
1.439,4.976072,
1.44,4.975086,
1.441,4.974757,
1.442,4.975744,
1.443,4.974428,
1.444,4.972785,
1.445,4.971798,
1.446,4.973113,
1.447,4.974757,
1.448,4.973442,
1.449,4.972456,
1.45,4.972456,
1.451,4.973113,
1.452,4.972785,
1.453,4.971469,
1.454,4.970812,
1.455,4.972456,
1.456,4.973771,
1.457,4.973113,
1.458,4.971798,
1.459,4.971469,
1.46,4.972456,
1.461,4.972127,
1.462,4.971469,
1.463,4.973442,
1.464,4.974757,
1.465,4.975744,
1.466,4.974428,
1.467,4.973771,
1.468,4.974757,
1.469,4.975086,
1.47,4.975086,
1.471,4.973771,
1.472,4.975415,
1.473,4.976072,
1.474,4.976072,
1.475,4.9741,
1.476,4.973771,
1.477,4.974428,
1.478,4.976072,
1.479,4.9741,
1.48,4.973771,
1.481,4.974428,
1.482,4.974428,
1.483,4.973113,
1.484,4.970812,
1.485,4.969825,
1.486,4.972127,
1.487,4.971141,
1.488,4.970154,
1.489,4.970154,
1.49,4.972127,
1.491,4.973442,
1.492,4.970812,
1.493,4.968839,
1.494,4.970812,
1.495,4.971798,
1.496,4.971141,
1.497,4.970483,
1.498,4.972127,
1.499,4.973442,
1.5,4.972785,
1.501,4.971141,
1.502,4.971469,
1.503,4.973771,
1.504,4.975086,
1.505,4.973442,
1.506,4.973113,
1.507,4.975744,
1.508,4.975744,
1.509,4.973113,
1.51,4.972785,
1.511,4.973442,
1.512,4.975086,
1.513,4.975086,
1.514,4.973113,
1.515,4.973771,
1.516,4.975744,
1.517,4.975415,
1.518,4.973113,
1.519,4.972785,
1.52,4.973113,
1.521,4.973771,
1.522,4.973442,
1.523,4.971798,
1.524,4.972785,
1.525,4.974428,
1.526,4.972456,
1.527,4.971469,
1.528,4.971141,
1.529,4.973113,
1.53,4.9741,
1.531,4.972127,
1.532,4.972127,
1.533,4.973771,
1.534,4.9741,
1.535,4.971798,
1.536,4.972127,
1.537,4.971798,
1.538,4.975086,
1.539,4.975415,
1.54,4.975086,
1.541,4.9741,
1.542,4.974428,
1.543,4.975744,
1.544,4.975086,
1.545,4.974428,
1.546,4.974757,
1.547,4.975744,
1.548,4.976072,
1.549,4.976072,
1.55,4.9741,
1.551,4.973771,
1.552,4.975086,
1.553,4.975415,
1.554,4.974428,
1.555,4.973442,
1.556,4.975415,
1.557,4.976072,
1.558,4.973771,
1.559,4.971469,
1.56,4.971141,
1.561,4.972127,
1.562,4.973442,
1.563,4.971141,
1.564,4.972127,
1.565,4.972456,
1.566,4.971798,
1.567,4.970483,
1.568,4.969825,
1.569,4.971798,
1.57,4.971469,
1.571,4.971141,
1.572,4.970483,
1.573,4.972456,
1.574,4.972785,
1.575,4.971798,
1.576,4.969168,
1.577,4.972456,
1.578,4.973771,
1.579,4.973442,
1.58,4.972785,
1.581,4.9741,
1.582,4.975744,
1.583,4.976072,
1.584,4.973113,
1.585,4.971469,
1.586,4.973442,
1.587,4.974757,
1.588,4.9741,
1.589,4.973113,
1.59,4.973442,
1.591,4.975086,
1.592,4.975086,
1.593,4.972785,
1.594,4.972127,
1.595,4.973113,
1.596,4.973771,
1.597,4.973771,
1.598,4.972456,
1.599,4.971798,
1.6,4.972785,
1.601,4.972127,
1.602,4.970812,
1.603,4.970812,
1.604,4.971469,
1.605,4.973113,
1.606,4.972456,
1.607,4.971469,
1.608,4.973113,
1.609,4.972456,
1.61,4.972127,
1.611,4.971141,
1.612,4.970812,
1.613,4.973113,
1.614,4.974428,
1.615,4.973113,
1.616,4.9741,
1.617,4.974757,
1.618,4.975744,
1.619,4.974757,
1.62,4.974428,
1.621,4.975086,
1.622,4.977388,
1.623,4.97673,
1.624,4.975744,
1.625,4.974428,
1.626,4.975086,
1.627,4.975744,
1.628,4.975415,
1.629,4.974757,
1.63,4.975086,
1.631,4.976401,
1.632,4.97673,
1.633,4.974757,
1.634,4.973113,
1.635,4.973771,
1.636,4.974428,
1.637,4.973442,
1.638,4.972127,
1.639,4.971798,
1.64,4.974757,
1.641,4.973771,
1.642,4.971798,
1.643,4.971141,
1.644,4.972456,
1.645,4.973442,
1.646,4.971798,
1.647,4.971798,
1.648,4.9741,
1.649,4.973771,
1.65,4.972456,
1.651,4.969825,
1.652,4.971798,
1.653,4.973442,
1.654,4.972456,
1.655,4.973771,
1.656,4.973442,
1.657,4.974757,
1.658,4.975415,
1.659,4.972127,
1.66,4.972456,
1.661,4.973771,
1.662,4.973771,
1.663,4.973113,
1.664,4.973442,
1.665,4.974757,
1.666,4.975415,
1.667,4.973442,
1.668,4.971798,
1.669,4.972456,
1.67,4.974428,
1.671,4.974428,
1.672,4.971798,
1.673,4.971798,
1.674,4.972785,
1.675,4.973771,
1.676,4.971141,
1.677,4.969168,
1.678,4.970812,
1.679,4.972456,
1.68,4.971141,
1.681,4.970812,
1.682,4.970483,
1.683,4.972785,
1.684,4.972456,
1.685,4.971469,
1.686,4.970812,
1.687,4.971141,
1.688,4.974428,
1.689,4.973771,
1.69,4.971141,
1.691,4.972785,
1.692,4.974428,
1.693,4.973771,
1.694,4.9741,
1.695,4.973771,
1.696,4.976072,
1.697,4.976072,
1.698,4.9741,
1.699,4.975415,
1.7,4.976401,
1.701,4.975415,
1.702,4.974428,
1.703,4.9741,
1.704,4.975744,
1.705,4.977059,
1.706,4.976072,
1.707,4.975086,
1.708,4.975415,
1.709,4.975744,
1.71,4.974428,
1.711,4.972785,
1.712,4.972785,
1.713,4.974757,
1.714,4.9741,
1.715,4.973113,
1.716,4.971798,
1.717,4.972127,
1.718,4.972785,
1.719,4.972456,
1.72,4.971141,
1.721,4.972127,
1.722,4.974428,
1.723,4.975086,
1.724,4.972785,
1.725,4.971141,
1.726,4.971141,
1.727,4.973442,
1.728,4.972785,
1.729,4.971469,
1.73,4.971798,
1.731,4.974757,
1.732,4.974757,
1.733,4.974428,
1.734,4.972127,
1.735,4.9741,
1.736,4.975086,
1.737,4.973113,
1.738,4.972785,
1.739,4.9741,
1.74,4.975086,
1.741,4.975415,
1.742,4.972785,
1.743,4.972456,
1.744,4.9741,
1.745,4.973771,
1.746,4.972456,
1.747,4.973113,
1.748,4.973771,
1.749,4.9741,
1.75,4.971798,
1.751,4.969497,
1.752,4.971469,
1.753,4.971469,
1.754,4.970812,
1.755,4.969497,
1.756,4.970483,
1.757,4.972785,
1.758,4.972456,
1.759,4.969497,
1.76,4.968839,
1.761,4.970483,
1.762,4.972456,
1.763,4.970483,
1.764,4.969497,
1.765,4.971469,
1.766,4.973113,
1.767,4.973113,
1.768,4.971798,
1.769,4.971141,
1.77,4.974428,
1.771,4.975744,
1.772,4.973771,
1.773,4.973771,
1.774,4.974428,
1.775,4.976072,
1.776,4.975744,
1.777,4.973442,
1.778,4.973771,
1.779,4.974757,
1.78,4.975415,
1.781,4.975086,
1.782,4.974428,
1.783,4.975744,
1.784,4.975415,
1.785,4.975086,
1.786,4.973442,
1.787,4.973771,
1.788,4.975086,
1.789,4.974757,
1.79,4.973442,
1.791,4.973113,
1.792,4.973113,
1.793,4.971798,
1.794,4.972127,
1.795,4.971469,
1.796,4.973113,
1.797,4.974428,
1.798,4.973113,
1.799,4.971469,
1.8,4.972456,
1.801,4.972456,
1.802,4.972456,
1.803,4.969825,
1.804,4.971141,
1.805,4.973442,
1.806,4.973771,
1.807,4.972127,
1.808,4.972456,
1.809,4.972127,
1.81,4.973771,
1.811,4.973771,
1.812,4.972127,
1.813,4.973113,
1.814,4.975086,
1.815,4.975086,
1.816,4.974428,
1.817,4.972456,
1.818,4.972127,
1.819,4.973771,
1.82,4.9741,
1.821,4.971798,
1.822,4.9741,
1.823,4.974757,
1.824,4.975086,
1.825,4.973113,
1.826,4.970812,
1.827,4.971798,
1.828,4.973113,
1.829,4.970483,
1.83,4.970483,
1.831,4.972127,
1.832,4.973113,
1.833,4.972785,
1.834,4.970154,
1.835,4.971469,
1.836,4.973113,
1.837,4.972785,
1.838,4.972127,
1.839,4.971798,
1.84,4.973113,
1.841,4.974757,
1.842,4.972785,
1.843,0.132955,
1.844,0.091198,
1.845,0.088239,
1.846,0.088568,
1.847,0.088239,
1.848,0.087582,
1.849,0.087582,
1.85,0.08791,
1.851,0.088239,
1.852,0.08791,
1.853,0.08791,
1.854,0.087582,
1.855,0.08791,
1.856,0.08791,
1.857,0.087582,
1.858,0.08791,
1.859,0.08791,
1.86,0.088568,
1.861,0.08791,
1.862,0.087582,
1.863,0.088568,
1.864,0.088568,
1.865,0.08791,
1.866,0.087582,
1.867,0.087582,
1.868,0.08791,
1.869,0.088239,
1.87,0.088568,
1.871,0.088239,
1.872,0.08791,
1.873,0.08791,
1.874,0.088239,
1.875,0.087582,
1.876,0.08791,
1.877,0.087582,
1.878,0.08791,
1.879,0.08791,
1.88,0.08791,
1.881,0.08791,
1.882,0.088239,
1.883,0.088239,
1.884,0.088239,
1.885,0.08791,
1.886,0.08791,
1.887,0.088239,
1.888,0.08791,
1.889,0.088239,
1.89,0.08791,
1.891,0.089554,
1.892,0.136572,
1.893,4.972785,
1.894,4.973113,
1.895,4.973442,
1.896,4.972785,
1.897,4.9741,
1.898,4.975086,
1.899,4.975415,
1.9,4.972785,
1.901,4.971469,
1.902,4.972127,
1.903,4.9741,
1.904,4.971798,
1.905,4.970154,
1.906,4.971141,
1.907,4.972456,
1.908,4.9741,
1.909,4.971469,
1.91,4.970483,
1.911,4.972785,
1.912,4.972127,
1.913,4.971141,
1.914,4.971141,
1.915,4.972785,
1.916,4.975086,
1.917,4.972127,
1.918,4.970812,
1.919,4.972456,
1.92,4.973442,
1.921,4.974428,
1.922,4.974428,
1.923,4.975086,
1.924,4.97673,
1.925,4.975744,
1.926,4.973442,
1.927,4.973771,
1.928,4.975744,
1.929,4.977059,
1.93,4.975086,
1.931,4.973771,
1.932,4.976072,
1.933,4.976072,
1.934,4.973771,
1.935,4.973113,
1.936,4.973113,
1.937,4.975744,
1.938,4.974757,
1.939,4.973442,
1.94,4.973771,
1.941,4.9741,
1.942,4.973113,
1.943,4.971141,
1.944,4.970154,
1.945,4.971469,
1.946,4.972456,
1.947,4.970812,
1.948,4.970154,
1.949,4.970812,
1.95,4.972785,
1.951,4.970154,
1.952,4.969168,
1.953,4.969825,
1.954,4.971469,
1.955,4.972127,
1.956,4.970483,
1.957,4.970812,
1.958,4.973113,
1.959,4.971798,
1.96,4.971798,
1.961,4.971469,
1.962,4.972127,
1.963,4.975086,
1.964,4.974757,
1.965,4.973113,
1.966,4.9741,
1.967,4.975086,
1.968,4.974428,
1.969,4.973771,
1.97,4.973771,
1.971,4.975086,
1.972,4.976401,
1.973,4.976072,
1.974,4.975086,
1.975,4.973771,
1.976,4.975086,
1.977,4.975086,
1.978,4.972127,
1.979,4.972456,
1.98,4.973113,
1.981,4.9741,
1.982,4.9741,
1.983,4.973113,
1.984,4.971141,
1.985,4.973113,
1.986,4.972456,
1.987,4.971469,
1.988,4.972456,
1.989,4.973771,
1.99,4.972785,
1.991,4.973113,
1.992,4.972127,
1.993,4.971798,
1.994,4.972456,
1.995,4.973771,
1.996,4.973113,
1.997,4.972785,
1.998,4.975086,
1.999,4.975744,
2,4.974428,
2.001,4.973113,
2.002,4.975086,
2.003,4.975744,
2.004,4.975086,
2.005,4.974757,
2.006,4.974428,
2.007,4.977059,
2.008,4.976072,
2.009,4.972785,
2.01,4.973442,
2.011,4.974757,
2.012,4.975744,
2.013,4.975086,
2.014,4.973771,
2.015,4.9741,
2.016,4.975086,
2.017,4.972456,
2.018,4.967853,
2.019,4.969825,
2.02,4.970812,
2.021,4.972785,
2.022,4.970812,
2.023,4.970483,
2.024,4.971798,
2.025,4.971798,
2.026,4.971141,
2.027,4.969497,
2.028,4.969825,
2.029,4.971798,
2.03,4.972456,
2.031,4.971469,
2.032,4.970812,
2.033,4.971141,
2.034,4.971469,
2.035,4.971798,
2.036,4.970483,
2.037,4.971469,
2.038,4.973771,
2.039,4.975744,
2.04,4.973771,
2.041,4.973442,
2.042,4.973771,
2.043,4.973771,
2.044,4.9741,
2.045,4.972785,
2.046,4.973113,
2.047,4.974757,
2.048,4.975744,
2.049,4.975086,
2.05,4.9741,
2.051,4.972456,
2.052,4.9741,
2.053,4.974757,
2.054,4.973113,
2.055,4.972456,
2.056,4.9741,
2.057,4.973442,
2.058,4.972456,
2.059,4.970812,
2.06,4.971798,
2.061,4.972127,
2.062,4.971469,
2.063,4.971469,
2.064,4.972456,
2.065,4.9741,
2.066,4.974428,
2.067,4.971141,
2.068,4.972456,
2.069,4.973442,
2.07,4.973113,
2.071,4.971798,
2.072,4.972785,
2.073,4.975744,
2.074,4.976401,
2.075,4.9741,
2.076,4.973113,
2.077,4.974757,
2.078,4.975086,
2.079,4.975086,
2.08,4.974428,
2.081,4.97673,
2.082,4.977388,
2.083,4.976401,
2.084,4.973442,
2.085,4.972785,
2.086,4.975086,
2.087,4.975744,
2.088,4.975086,
2.089,4.975086,
2.09,4.976072,
2.091,4.976401,
2.092,4.974428,
2.093,4.972127,
2.094,4.972456,
2.095,4.973771,
2.096,4.973771,
2.097,4.972127,
2.098,4.972456,
2.099,4.973113,
2.1,4.973113,
2.101,4.970812,
2.102,4.970812,
2.103,4.971469,
2.104,4.973113,
2.105,4.972127,
2.106,4.970812,
2.107,4.971798,
2.108,4.972785,
2.109,4.971469,
2.11,4.969497,
2.111,4.969497,
2.112,4.972456,
2.113,4.973113,
2.114,4.971798,
2.115,4.973113,
2.116,4.9741,
2.117,4.973771,
2.118,4.972785,
2.119,4.971798,
2.12,4.973442,
2.121,4.975086,
2.122,4.9741,
2.123,4.973442,
2.124,4.973442,
2.125,4.974757,
2.126,4.973771,
2.127,4.971798,
2.128,4.971798,
2.129,4.973113,
2.13,4.974757,
2.131,4.972456,
2.132,4.972456,
2.133,4.971798,
2.134,4.972127,
2.135,4.971469,
2.136,4.970483,
2.137,4.969825,
2.138,4.972456,
2.139,4.972785,
2.14,4.971798,
2.141,4.972456,
2.142,4.970812,
2.143,4.971798,
2.144,4.973113,
2.145,4.971141,
2.146,4.971469,
2.147,4.973442,
2.148,4.973442,
2.149,4.974428,
2.15,4.973442,
2.151,4.972456,
2.152,4.974428,
2.153,4.975744,
2.154,4.974428,
2.155,4.974757,
2.156,4.97673,
2.157,4.978045,
2.158,4.975415,
2.159,4.974428,
2.16,4.974757,
2.161,4.976401,
2.162,4.974757,
2.163,4.974428,
2.164,4.976401,
2.165,4.975415,
2.166,4.977716,
2.167,4.974428,
2.168,4.973113,
2.169,4.974428,
2.17,4.975415,
2.171,4.972127,
2.172,4.972785,
2.173,4.974428,
2.174,4.9741,
2.175,4.973442,
2.176,4.969825,
2.177,4.970812,
2.178,4.973113,
2.179,4.973442,
2.18,4.971141,
2.181,4.971469,
2.182,4.973113,
2.183,4.9741,
2.184,4.971469,
2.185,4.970154,
2.186,4.969825,
2.187,4.973442,
2.188,4.974428,
2.189,4.973113,
2.19,4.972456,
2.191,4.974428,
2.192,4.973771,
2.193,4.973113,
2.194,4.972456,
2.195,4.974428,
2.196,4.975415,
2.197,4.9741,
2.198,4.973113,
2.199,4.974428,
2.2,4.973771,
2.201,4.973113,
2.202,4.972785,
2.203,4.973113,
2.204,4.9741,
2.205,4.973771,
2.206,4.973113,
2.207,4.972456,
2.208,4.973771,
2.209,4.972456,
2.21,4.970812,
2.211,4.970154,
2.212,4.971141,
2.213,4.972127,
2.214,4.971798,
2.215,4.970812,
2.216,4.970812,
2.217,4.971798,
2.218,4.971141,
2.219,4.970483,
2.22,4.969168,
2.221,4.971469,
2.222,4.973113,
2.223,4.971798,
2.224,4.971798,
2.225,4.971469,
2.226,4.971141,
2.227,4.972785,
2.228,4.971798,
2.229,4.971798,
2.23,4.973771,
2.231,4.975086,
2.232,4.976072,
2.233,4.974428,
2.234,4.973113,
2.235,4.975086,
2.236,4.975086,
2.237,4.973771,
2.238,4.973113,
2.239,4.975086,
2.24,4.976401,
2.241,4.977388,
2.242,4.974428,
2.243,4.973113,
2.244,4.9741,
2.245,4.976072,
2.246,4.973771,
2.247,4.972127,
2.248,4.972785,
2.249,4.9741,
2.25,4.9741,
2.251,4.971141,
2.252,4.970483,
2.253,4.973113,
2.254,4.973113,
2.255,4.972456,
2.256,4.972456,
2.257,4.973442,
2.258,4.9741,
2.259,4.972785,
2.26,4.971469,
2.261,4.972785,
2.262,4.973442,
2.263,4.973442,
2.264,4.972456,
2.265,4.9741,
2.266,4.976401,
2.267,4.974428,
2.268,4.973771,
2.269,4.973442,
2.27,4.975744,
2.271,4.977388,
2.272,4.975415,
2.273,4.975086,
2.274,4.975415,
2.275,4.976072,
2.276,4.975744,
2.277,4.973771,
2.278,4.9741,
2.279,4.976072,
2.28,4.97673,
2.281,4.975086,
2.282,4.974428,
2.283,4.973771,
2.284,4.974428,
2.285,4.973113,
2.286,4.971798,
2.287,4.971798,
2.288,4.973771,
2.289,4.973771,
2.29,4.972127,
2.291,4.971141,
2.292,4.971798,
2.293,4.971798,
2.294,4.971469,
2.295,4.970483,
2.296,4.969825,
2.297,4.972785,
2.298,4.972785,
2.299,4.972456,
2.3,4.970483,
2.301,4.970154,
2.302,4.972127,
2.303,4.972127,
2.304,4.971798,
2.305,4.972785,
2.306,4.974757,
2.307,4.975086,
2.308,4.973771,
2.309,4.972456,
2.31,4.973113,
2.311,4.974757,
2.312,4.973442,
2.313,4.973113,
2.314,4.973771,
2.315,4.975415,
2.316,4.975086,
2.317,4.971798,
2.318,4.972456,
2.319,4.9741,
2.32,4.9741,
2.321,4.972456,
2.322,4.972785,
2.323,4.9741,
2.324,4.9741,
2.325,4.972456,
2.326,4.969825,
2.327,4.970154,
2.328,4.971469,
2.329,4.971798,
2.33,4.970154,
2.331,4.970154,
2.332,4.972785,
2.333,4.973771,
2.334,4.970154,
2.335,4.969825,
2.336,4.971141,
2.337,4.972785,
2.338,4.973113,
2.339,4.971141,
2.34,4.971798,
2.341,4.974428,
2.342,4.975086,
2.343,4.973771,
2.344,4.972456,
2.345,4.973771,
2.346,4.976401,
2.347,4.975744,
2.348,4.975086,
2.349,4.975086,
2.35,4.975744,
2.351,4.976401,
2.352,4.9741,
2.353,4.973442,
2.354,4.975415,
2.355,4.977059,
2.356,4.975744,
2.357,4.975086,
2.358,4.973771,
2.359,4.975086,
2.36,4.9741,
2.361,4.973113,
2.362,4.972456,
2.363,4.973113,
2.364,4.974757,
2.365,4.972456,
2.366,4.972456,
2.367,4.972456,
2.368,4.973113,
2.369,4.972785,
2.37,4.972127,
2.371,4.973113,
2.372,4.9741,
2.373,4.973771,
2.374,4.972785,
2.375,4.972127,
2.376,4.972456,
2.377,4.973442,
2.378,4.972456,
2.379,4.972456,
2.38,4.974428,
2.381,4.975744,
2.382,4.975086,
2.383,4.974757,
2.384,4.972785,
2.385,4.975744,
2.386,4.976072,
2.387,4.975086,
2.388,4.974428,
2.389,4.975086,
2.39,4.977388,
2.391,4.976401,
2.392,4.973113,
2.393,4.973442,
2.394,4.975086,
2.395,4.976072,
2.396,4.974757,
2.397,4.9741,
2.398,4.975744,
2.399,4.975415,
2.4,4.972456,
2.401,4.970812,
2.402,4.971141,
2.403,4.972456,
2.404,4.971469,
2.405,4.970483,
2.406,4.970812,
2.407,4.971798,
2.408,4.972127,
2.409,4.969825,
2.41,4.969168,
2.411,4.971469,
2.412,4.971141,
2.413,4.971141,
2.414,4.970812,
2.415,4.971798,
2.416,4.973771,
2.417,4.970483,
2.418,4.970154,
2.419,4.971798,
2.42,4.973771,
2.421,4.973771,
2.422,4.972127,
2.423,4.973442,
2.424,4.975744,
2.425,4.974757,
2.426,4.973113,
2.427,4.972127,
2.428,4.973113,
2.429,4.975415,
2.43,4.974757,
2.431,4.973113,
2.432,4.973771,
2.433,4.975415,
2.434,4.974428,
2.435,4.973113,
2.436,4.972456,
2.437,4.975086,
2.438,4.975086,
2.439,4.9741,
2.44,4.972456,
2.441,4.972785,
2.442,4.973442,
2.443,4.972127,
2.444,4.971141,
2.445,4.971798,
2.446,4.972785,
2.447,4.973771,
2.448,4.972785,
2.449,4.971798,
2.45,4.973113,
2.451,4.973113,
2.452,4.972785,
2.453,4.972456,
2.454,4.972456,
2.455,4.974757,
2.456,4.974757,
2.457,4.974428,
2.458,4.973771,
2.459,4.972785,
2.46,4.974428,
2.461,4.974757,
2.462,4.9741,
2.463,4.974757,
2.464,4.975415,
2.465,4.976401,
2.466,4.9741,
2.467,4.972785,
2.468,4.973771,
2.469,4.974428,
2.47,4.972785,
2.471,4.973113,
2.472,4.973113,
2.473,4.974428,
2.474,4.975415,
2.475,4.972456,
2.476,4.970812,
2.477,4.972127,
2.478,4.972127,
2.479,4.970483,
2.48,4.969825,
2.481,4.972127,
2.482,4.972785,
2.483,4.971141,
2.484,4.968839,
2.485,4.970154,
2.486,4.971469,
2.487,4.971469,
2.488,4.970154,
2.489,4.970812,
2.49,4.972785,
2.491,4.973442,
2.492,4.970812,
2.493,4.970154,
2.494,4.971141,
2.495,4.972785,
2.496,4.973113,
2.497,4.973113,
2.498,4.973113,
2.499,4.975744,
2.5,4.975086,
2.501,4.972785,
2.502,4.972456,
2.503,4.975086,
2.504,4.975086,
2.505,4.974428,
2.506,4.973113,
2.507,4.974757,
2.508,4.975744,
2.509,4.9741,
2.51,4.972456,
2.511,4.972127,
2.512,4.9741,
2.513,4.973771,
2.514,4.973113,
2.515,4.972456,
2.516,4.973442,
2.517,4.973442,
2.518,4.972456,
2.519,4.970483,
2.52,4.971141,
2.521,4.973442,
2.522,4.973442,
2.523,4.971798,
2.524,4.972456,
2.525,4.973442,
2.526,4.973442,
2.527,4.971798,
2.528,4.971469,
2.529,4.971798,
2.53,4.973771,
2.531,4.9741,
2.532,4.973442,
2.533,4.973771,
2.534,4.9741,
2.535,4.975086,
2.536,4.974428,
2.537,4.973113,
2.538,4.975744,
2.539,4.977059,
2.54,4.976401,
2.541,4.975744,
2.542,4.9741,
2.543,4.975415,
2.544,4.976401,
2.545,4.975744,
2.546,4.974428,
2.547,4.974757,
2.548,4.977059,
2.549,4.977716,
2.55,4.974428,
2.551,4.972456,
2.552,4.973771,
2.553,4.9741,
2.554,4.973442,
2.555,4.972127,
2.556,4.972785,
2.557,4.9741,
2.558,4.971798,
2.559,4.970154,
2.56,4.971469,
2.561,4.972127,
2.562,4.971141,
2.563,4.971141,
2.564,4.972127,
2.565,4.9741,
2.566,4.971798,
2.567,4.970154,
2.568,4.969825,
2.569,4.971798,
2.57,4.972456,
2.571,4.971469,
2.572,4.972456,
2.573,4.974428,
2.574,4.974757,
2.575,4.973771,
2.576,4.971469,
2.577,4.972127,
2.578,4.975086,
2.579,4.9741,
2.58,4.972456,
2.581,4.973442,
2.582,4.974757,
2.583,4.975744,
2.584,4.972456,
2.585,4.971798,
2.586,4.973113,
2.587,4.975086,
2.588,4.974428,
2.589,4.973113,
2.59,4.972456,
2.591,4.974428,
2.592,4.973113,
2.593,4.972785,
2.594,4.970812,
2.595,4.972127,
2.596,4.9741,
2.597,4.971798,
2.598,4.972456,
2.599,4.973442,
2.6,4.973113,
2.601,4.973113,
2.602,4.970483,
2.603,4.972456,
2.604,4.973442,
2.605,4.973771,
2.606,4.973442,
2.607,4.972785,
2.608,4.9741,
2.609,4.9741,
2.61,4.973113,
2.611,4.972456,
2.612,4.974428,
2.613,4.975744,
2.614,4.976401,
2.615,4.975086,
2.616,4.975086,
2.617,4.975744,
2.618,4.976072,
2.619,4.9741,
2.62,4.9741,
2.621,4.974428,
2.622,4.976401,
2.623,4.974757,
2.624,4.973771,
2.625,4.973113,
2.626,4.973771,
2.627,4.9741,
2.628,4.972127,
2.629,4.970812,
2.63,4.973442,
2.631,4.972127,
2.632,4.971798,
2.633,4.970154,
2.634,4.969497,
2.635,4.971798,
2.636,4.971141,
2.637,4.970154,
2.638,4.971141,
2.639,4.971798,
2.64,4.972456,
2.641,4.971798,
2.642,4.969825,
2.643,4.970154,
2.644,4.970812,
2.645,4.971141,
2.646,4.971141,
2.647,4.972127,
2.648,4.973771,
2.649,4.974428,
2.65,4.973113,
2.651,4.972785,
2.652,4.974757,
2.653,4.975415,
2.654,4.973442,
2.655,4.973771,
2.656,4.976072,
2.657,4.977059,
2.658,4.976072,
2.659,4.972456,
2.66,4.973771,
2.661,4.975744,
2.662,4.974757,
2.663,4.973771,
2.664,4.9741,
2.665,4.975744,
2.666,4.975744,
2.667,4.972127,
2.668,4.972127,
2.669,4.975086,
2.67,4.973771,
2.671,4.972456,
2.672,4.971798,
2.673,4.974428,
2.674,4.974757,
2.675,4.972456,
2.676,4.971141,
2.677,4.971798,
2.678,4.973113,
2.679,4.973113,
2.68,4.971798,
2.681,4.972785,
2.682,4.973442,
2.683,4.973771,
2.684,4.971141,
2.685,4.971798,
2.686,4.973113,
2.687,4.974757,
2.688,4.974428,
2.689,4.973771,
2.69,4.974428,
2.691,4.974428,
2.692,4.974428,
2.693,4.973442,
2.694,4.971798,
2.695,4.975415,
2.696,4.975415,
2.697,4.973771,
2.698,4.9741,
2.699,4.974757,
2.7,4.973771,
2.701,4.973113,
2.702,4.971798,
2.703,4.972127,
2.704,4.9741,
2.705,4.973113,
2.706,4.971798,
2.707,4.971469,
2.708,4.972456,
2.709,4.971141,
2.71,4.969825,
2.711,4.968839,
2.712,4.970812,
2.713,4.972456,
2.714,4.970483,
2.715,4.970154,
2.716,4.971141,
2.717,4.971469,
2.718,4.971798,
2.719,4.970812,
2.72,4.969497,
2.721,4.972456,
2.722,4.9741,
2.723,4.973113,
2.724,4.974428,
2.725,4.973771,
2.726,4.974757,
2.727,4.975415,
2.728,4.973442,
2.729,4.974757,
2.73,4.975744,
2.731,4.977059,
2.732,4.975744,
2.733,4.974757,
2.734,4.974428,
2.735,4.975415,
2.736,4.9741,
2.737,4.9741,
2.738,4.974428,
2.739,4.97673,
2.74,4.977059,
2.741,4.974757,
2.742,4.973442,
2.743,4.973771,
2.744,4.974428,
2.745,4.973113,
2.746,4.971798,
2.747,4.9741,
2.748,4.975086,
2.749,4.974428,
2.75,4.971798,
2.751,4.970812,
2.752,4.972785,
2.753,4.973442,
2.754,4.971798,
2.755,4.972127,
2.756,4.972785,
2.757,4.973442,
2.758,4.972456,
2.759,4.969825,
2.76,4.971469,
2.761,4.973113,
2.762,4.9741,
2.763,4.973113,
2.764,4.973771,
2.765,4.975086,
2.766,4.975415,
2.767,4.972785,
2.768,4.973442,
2.769,4.974428,
2.77,4.975086,
2.771,4.974757,
2.772,4.973771,
2.773,4.975086,
2.774,4.975415,
2.775,4.973771,
2.776,4.972456,
2.777,4.972127,
2.778,4.9741,
2.779,4.95766,
2.78,0.102706,
2.781,0.088897,
2.782,0.08791,
2.783,0.088239,
2.784,0.08791,
2.785,0.088239,
2.786,0.088239,
2.787,0.088239,
2.788,0.088568,
2.789,0.088239,
2.79,0.088239,
2.791,0.08791,
2.792,0.087582,
2.793,0.087582,
2.794,0.08791,
2.795,0.088239,
2.796,0.088239,
2.797,0.088239,
2.798,0.088239,
2.799,0.088568,
2.8,0.088568,
2.801,0.08791,
2.802,0.087582,
2.803,0.08791,
2.804,0.088239,
2.805,0.088239,
2.806,0.08791,
2.807,0.088568,
2.808,0.088568,
2.809,0.088239,
2.81,0.088568,
2.811,0.087253,
2.812,0.08791,
2.813,0.087582,
2.814,0.08791,
2.815,0.087582,
2.816,0.08791,
2.817,0.088239,
2.818,0.087582,
2.819,0.08791,
2.82,0.088239,
2.821,0.08791,
2.822,0.088239,
2.823,0.088239,
2.824,0.088239,
2.825,0.087582,
2.826,0.090541,
2.827,0.100076,
2.828,0.118159,
2.829,4.945823,
2.83,4.971798,
2.831,4.973771,
2.832,4.973113,
2.833,4.971141,
2.834,4.970154,
2.835,4.971798,
2.836,4.972456,
2.837,4.971141,
2.838,4.971469,
2.839,4.972127,
2.84,4.973771,
2.841,4.9741,
2.842,4.971798,
2.843,4.972127,
2.844,4.975086,
2.845,4.975744,
2.846,4.973113,
2.847,4.973113,
2.848,4.975086,
2.849,4.97673,
2.85,4.9741,
2.851,4.972127,
2.852,4.972456,
2.853,4.9741,
2.854,4.974428,
2.855,4.972785,
2.856,4.972456,
2.857,4.9741,
2.858,4.975086,
2.859,4.971798,
2.86,4.970812,
2.861,4.970483,
2.862,4.972127,
2.863,4.972785,
2.864,4.971798,
2.865,4.971469,
2.866,4.973442,
2.867,4.973442,
2.868,4.972127,
2.869,4.971469,
2.87,4.971798,
2.871,4.973771,
2.872,4.974428,
2.873,4.973113,
2.874,4.972785,
2.875,4.974428,
2.876,4.973771,
2.877,4.972785,
2.878,4.973771,
2.879,4.975744,
2.88,4.97673,
2.881,4.974757,
2.882,4.974428,
2.883,4.976072,
2.884,4.975744,
2.885,4.975086,
2.886,4.9741,
2.887,4.975086,
2.888,4.976401,
2.889,4.976072,
2.89,4.975086,
2.891,4.975415,
2.892,4.974757,
2.893,4.975415,
2.894,4.974428,
2.895,4.972785,
2.896,4.975086,
2.897,4.974757,
2.898,4.973442,
2.899,4.972127,
2.9,4.971141,
2.901,4.971469,
2.902,4.972456,
2.903,4.971141,
2.904,4.970154,
2.905,4.971798,
2.906,4.973771,
2.907,4.972456,
2.908,4.970154,
2.909,4.969825,
2.91,4.971798,
2.911,4.971798,
2.912,4.970483,
2.913,4.970483,
2.914,4.973113,
2.915,4.973771,
2.916,4.973113,
2.917,4.971141,
2.918,4.972127,
2.919,4.973771,
2.92,4.973442,
2.921,4.973113,
2.922,4.973113,
2.923,4.975415,
2.924,4.975744,
2.925,4.972785,
2.926,4.972456,
2.927,4.973442,
2.928,4.9741,
2.929,4.971798,
2.93,4.973113,
2.931,4.974757,
2.932,4.975086,
2.933,4.973771,
2.934,4.969825,
2.935,4.970812,
2.936,4.972456,
2.937,4.972456,
2.938,4.970812,
2.939,4.970483,
2.94,4.972127,
2.941,4.974428,
2.942,4.972127,
2.943,4.970483,
2.944,4.970812,
2.945,4.972785,
2.946,4.973113,
2.947,4.971798,
2.948,4.972127,
2.949,4.973442,
2.95,4.973442,
2.951,4.973113,
2.952,4.971469,
2.953,4.971798,
2.954,4.975086,
2.955,4.975086,
2.956,4.9741,
2.957,4.975086,
2.958,4.974757,
2.959,4.976401,
2.96,4.975086,
2.961,4.973771,
2.962,4.974757,
2.963,4.977059,
2.964,4.977059,
2.965,4.975086,
2.966,4.974428,
2.967,4.975744,
2.968,4.975744,
2.969,4.975086,
2.97,4.973771,
2.971,4.973442,
2.972,4.976401,
2.973,4.974757,
2.974,4.972456,
2.975,4.972127,
2.976,4.972127,
2.977,4.973771,
2.978,4.971798,
2.979,4.971141,
2.98,4.972785,
2.981,4.973771,
2.982,4.973771,
2.983,4.971469,
2.984,4.969825,
2.985,4.970812,
2.986,4.972456,
2.987,4.971798,
2.988,4.971798,
2.989,4.971469,
2.99,4.973113,
2.991,4.973442,
2.992,4.971141,
2.993,4.971469,
2.994,4.972785,
2.995,4.9741,
2.996,4.973113,
2.997,4.972456,
2.998,4.974757,
2.999,4.975415,
3,4.972785,
3.001,4.971469,
3.002,4.972456,
3.003,4.974757,
3.004,4.973771,
3.005,4.972785,
3.006,4.973442,
3.007,4.975744,
3.008,4.975086,
3.009,4.971798,
3.01,4.971469,
3.011,4.972456,
3.012,4.973442,
3.013,4.971798,
3.014,4.971141,
3.015,4.972127,
3.016,4.974428,
3.017,4.972456,
3.018,4.970483,
3.019,4.971141,
3.02,4.971798,
3.021,4.973442,
3.022,4.973442,
3.023,4.971469,
3.024,4.973442,
3.025,4.973442,
3.026,4.973442,
3.027,4.971798,
3.028,4.972127,
3.029,4.9741,
3.03,4.9741,
3.031,4.974757,
3.032,4.975086,
3.033,4.975415,
3.034,4.975744,
3.035,4.975744,
3.036,4.9741,
3.037,4.975086,
3.038,4.975415,
3.039,4.976401,
3.04,4.975744,
3.041,4.974757,
3.042,4.9741,
3.043,4.975086,
3.044,4.974428,
3.045,4.973113,
3.046,4.974428,
3.047,4.975744,
3.048,4.975744,
3.049,4.972785,
3.05,4.970812,
3.051,4.971469,
3.052,4.972456,
3.053,4.972127,
3.054,4.969825,
3.055,4.970154,
3.056,4.972456,
3.057,4.972456,
3.058,4.971469,
3.059,4.968839,
3.06,4.971469,
3.061,4.971141,
3.062,4.970483,
3.063,4.970812,
3.064,4.971141,
3.065,4.973442,
3.066,4.972785,
3.067,4.969497,
3.068,4.970812,
3.069,4.973113,
3.07,4.974428,
3.071,4.973442,
3.072,4.973771,
3.073,4.974757,
3.074,4.976401,
3.075,4.975086,
3.076,4.972127,
3.077,4.972785,
3.078,4.974428,
3.079,4.974428,
3.08,4.973442,
3.081,4.973113,
3.082,4.975744,
3.083,4.975415,
3.084,4.973771,
3.085,4.972785,
3.086,4.9741,
3.087,4.974428,
3.088,4.973771,
3.089,4.972456,
3.09,4.973113,
3.091,4.974428,
3.092,4.972785,
3.093,4.970812,
3.094,4.971798,
3.095,4.972127,
3.096,4.972785,
3.097,4.972785,
3.098,4.972456,
3.099,4.972456,
3.1,4.973442,
3.101,4.972785,
3.102,4.972127,
3.103,4.971469,
3.104,4.9741,
3.105,4.975415,
3.106,4.973442,
3.107,4.973442,
3.108,4.975086,
3.109,4.975086,
3.11,4.975086,
3.111,4.973771,
3.112,4.975086,
3.113,4.976401,
3.114,4.977388,
3.115,4.975744,
3.116,4.973442,
3.117,4.973771,
3.118,4.975744,
3.119,4.974757,
3.12,4.973113,
3.121,4.973113,
3.122,4.975415,
3.123,4.976072,
3.124,4.973442,
3.125,4.971141,
3.126,4.972456,
3.127,4.972127,
3.128,4.971141,
3.129,4.970812,
3.13,4.971141,
3.131,4.972456,
3.132,4.973113,
3.133,4.970483,
3.134,4.968181,
3.135,4.970812,
3.136,4.971798,
3.137,4.970812,
3.138,4.970483,
3.139,4.971469,
3.14,4.972785,
3.141,4.973113,
3.142,4.969825,
3.143,4.969825,
3.144,4.971798,
3.145,4.973113,
3.146,4.972127,
3.147,4.972785,
3.148,4.974757,
3.149,4.975086,
3.15,4.973442,
3.151,4.972456,
3.152,4.973113,
3.153,4.974428,
3.154,4.9741,
3.155,4.972785,
3.156,4.973771,
3.157,4.975415,
3.158,4.974428,
3.159,4.972127,
3.16,4.971141,
3.161,4.973771,
3.162,4.9741,
3.163,4.972456,
3.164,4.971141,
3.165,4.972127,
3.166,4.972785,
3.167,4.971469,
3.168,4.969497,
3.169,4.969497,
3.17,4.972127,
3.171,4.972127,
3.172,4.971798,
3.173,4.970812,
3.174,4.972456,
3.175,4.973113,
3.176,4.971469,
3.177,4.970812,
3.178,4.971798,
3.179,4.973113,
3.18,4.973113,
3.181,4.972127,
3.182,4.972785,
3.183,4.975415,
3.184,4.974428,
3.185,4.9741,
3.186,4.973113,
3.187,4.975415,
3.188,4.97673,
3.189,4.976401,
3.19,4.975415,
3.191,4.975415,
3.192,4.975086,
3.193,4.975415,
3.194,4.9741,
3.195,4.9741,
3.196,4.976072,
3.197,4.976401,
3.198,4.973771,
3.199,4.975086,
3.2,4.974428,
3.201,4.975086,
3.202,4.974428,
3.203,4.972127,
3.204,4.972785,
3.205,4.973442,
3.206,4.974428,
3.207,4.973113,
3.208,4.971469,
3.209,4.970812,
3.21,4.972456,
3.211,4.973113,
3.212,4.971798,
3.213,4.971798,
3.214,4.973771,
3.215,4.973771,
3.216,4.971798,
3.217,4.969825,
3.218,4.970483,
3.219,4.972456,
3.22,4.973442,
3.221,4.971798,
3.222,4.972456,
3.223,4.974428,
3.224,4.975086,
3.225,4.974428,
3.226,4.971469,
3.227,4.972785,
3.228,4.975415,
3.229,4.9741,
3.23,4.973442,
3.231,4.973442,
3.232,4.975086,
3.233,4.974757,
3.234,4.971798,
3.235,4.972456,
3.236,4.9741,
3.237,4.975086,
3.238,4.973113,
3.239,4.972127,
3.24,4.974757,
3.241,4.9741,
3.242,4.972127,
3.243,4.971141,
3.244,4.970812,
3.245,4.972456,
3.246,4.972785,
3.247,4.971798,
3.248,4.971469,
3.249,4.973113,
3.25,4.973771,
3.251,4.973771,
3.252,4.971141,
3.253,4.972127,
3.254,4.973771,
3.255,4.974428,
3.256,4.973113,
3.257,4.972456,
3.258,4.972785,
3.259,4.973771,
3.26,4.974428,
3.261,4.973771,
3.262,4.974757,
3.263,4.976072,
3.264,4.977388,
3.265,4.975744,
3.266,4.975086,
3.267,4.975744,
3.268,4.976072,
3.269,4.975086,
3.27,4.9741,
3.271,4.975415,
3.272,4.977388,
3.273,4.975086,
3.274,4.974428,
3.275,4.973771,
3.276,4.973771,
3.277,4.9741,
3.278,4.971798,
3.279,4.972127,
3.28,4.973771,
3.281,4.972785,
3.282,4.972127,
3.283,4.969497,
3.284,4.969168,
3.285,4.971798,
3.286,4.970483,
3.287,4.969497,
3.288,4.970812,
3.289,4.971798,
3.29,4.973442,
3.291,4.971798,
3.292,4.969168,
3.293,4.970483,
3.294,4.971469,
3.295,4.971141,
3.296,4.970812,
3.297,4.972456,
3.298,4.974428,
3.299,4.9741,
3.3,4.972456,
3.301,4.972456,
3.302,4.973771,
3.303,4.975086,
3.304,4.973113,
3.305,4.973442,
3.306,4.976072,
3.307,4.976072,
3.308,4.976401,
3.309,4.973113,
3.31,4.972127,
3.311,4.974428,
3.312,4.975415,
3.313,4.973442,
3.314,4.973113,
3.315,4.975415,
3.316,4.976072,
3.317,4.973113,
3.318,4.971798,
3.319,4.972127,
3.32,4.974428,
3.321,4.973442,
3.322,4.971469,
3.323,4.972456,
3.324,4.976401,
3.325,4.972785,
3.326,4.971141,
3.327,4.971798,
3.328,4.973113,
3.329,4.973771,
3.33,4.972127,
3.331,4.972456,
3.332,4.9741,
3.333,4.9741,
3.334,4.971469,
3.335,4.971798,
3.336,4.973442,
3.337,4.975086,
3.338,4.975415,
3.339,4.975086,
3.34,4.975415,
3.341,4.976072,
3.342,4.975744,
3.343,4.974428,
3.344,4.973442,
3.345,4.975744,
3.346,4.975744,
3.347,4.975744,
3.348,4.975086,
3.349,4.974757,
3.35,4.974757,
3.351,4.974757,
3.352,4.973442,
3.353,4.972456,
3.354,4.973771,
3.355,4.974428,
3.356,4.972785,
3.357,4.971469,
3.358,4.971469,
3.359,4.970154,
3.36,4.971141,
3.361,4.970154,
3.362,4.970154,
3.363,4.971798,
3.364,4.972785,
3.365,4.971469,
3.366,4.970812,
3.367,4.969168,
3.368,4.971469,
3.369,4.971469,
3.37,4.969825,
3.371,4.970483,
3.372,4.972456,
3.373,4.973113,
3.374,4.973771,
3.375,4.971798,
3.376,4.973113,
3.377,4.9741,
3.378,4.973771,
3.379,4.973442,
3.38,4.973442,
3.381,4.975086,
3.382,4.976401,
3.383,4.973771,
3.384,4.972456,
3.385,4.9741,
3.386,4.974757,
3.387,4.973771,
3.388,4.973113,
3.389,4.974757,
3.39,4.976072,
3.391,4.976401,
3.392,4.973771,
3.393,4.972127,
3.394,4.973113,
3.395,4.975086,
3.396,4.972456,
3.397,4.972785,
3.398,4.972785,
3.399,4.973771,
3.4,4.973442,
3.401,4.971141,
3.402,4.971141,
3.403,4.972785,
3.404,4.974428,
3.405,4.972785,
3.406,4.972785,
3.407,4.971798,
3.408,4.973113,
3.409,4.972127,
3.41,4.971141,
3.411,4.971798,
3.412,4.973771,
3.413,4.974757,
3.414,4.973771,
3.415,4.9741,
3.416,4.9741,
3.417,4.973113,
3.418,4.973771,
3.419,4.971798,
3.42,4.972456,
3.421,4.975086,
3.422,4.9741,
3.423,4.973113,
3.424,4.973442,
3.425,4.973442,
3.426,4.974428,
3.427,4.973113,
3.428,4.971798,
3.429,4.973113,
3.43,4.9741,
3.431,4.9741,
3.432,4.972456,
3.433,4.970483,
3.434,4.971141,
3.435,4.972127,
3.436,4.972127,
3.437,4.970154,
3.438,4.970483,
3.439,4.972127,
3.44,4.973442,
3.441,4.973442,
3.442,4.970483,
3.443,4.970483,
3.444,4.972785,
3.445,4.972785,
3.446,4.971141,
3.447,4.971798,
3.448,4.973113,
3.449,4.975086,
3.45,4.972127,
3.451,4.971141,
3.452,4.973771,
3.453,4.975744,
3.454,4.975086,
3.455,4.974757,
3.456,4.975086,
3.457,4.976401,
3.458,4.976401,
3.459,4.974428,
3.46,4.974428,
3.461,4.975415,
3.462,4.975415,
3.463,4.974428,
3.464,4.974428,
3.465,4.97673,
3.466,4.976401,
3.467,4.974428,
3.468,4.973442,
3.469,4.973113,
3.47,4.974757,
3.471,4.973771,
3.472,4.9741,
3.473,4.973442,
3.474,4.973771,
3.475,4.972127,
3.476,4.972127,
3.477,4.971141,
3.478,4.972785,
3.479,4.973771,
3.48,4.973442,
3.481,4.972785,
3.482,4.972127,
3.483,4.973113,
3.484,4.972785,
3.485,4.973442,
3.486,4.970812,
3.487,4.972456,
3.488,4.974428,
3.489,4.975086,
3.49,4.9741,
3.491,4.9741,
3.492,4.973771,
3.493,4.975744,
3.494,4.974428,
3.495,4.973442,
3.496,4.975415,
3.497,4.975415,
3.498,4.975086,
3.499,4.9741,
3.5,4.973442,
3.501,4.974428,
3.502,4.974428,
3.503,4.972785,
3.504,4.973442,
3.505,4.975086,
3.506,4.975744,
3.507,4.973442,
3.508,4.972127,
3.509,4.971798,
3.51,4.971798,
3.511,4.971141,
3.512,4.969825,
3.513,4.971469,
3.514,4.972456,
3.515,4.971798,
3.516,4.969825,
3.517,4.970154,
3.518,4.970154,
3.519,4.971469,
3.52,4.970812,
3.521,4.969825,
3.522,4.972456,
3.523,4.972456,
3.524,4.972456,
3.525,4.970483,
3.526,4.970483,
3.527,4.973113,
3.528,4.972785,
3.529,4.972127,
3.53,4.973113,
3.531,4.975744,
3.532,4.976401,
3.533,4.974757,
3.534,4.971798,
3.535,4.9741,
3.536,4.975086,
3.537,4.9741,
3.538,4.974757,
3.539,4.974757,
3.54,4.977059,
3.541,4.976401,
3.542,4.973442,
3.543,4.973113,
3.544,4.974428,
3.545,4.975744,
3.546,4.973771,
3.547,4.972785,
3.548,4.9741,
3.549,4.975744,
3.55,4.972785,
3.551,4.971469,
3.552,4.970812,
3.553,4.973113,
3.554,4.973771,
3.555,4.971798,
3.556,4.972456,
3.557,4.972785,
3.558,4.973442,
3.559,4.972127,
3.56,4.971469,
3.561,4.971141,
3.562,4.972785,
3.563,4.973113,
3.564,4.972456,
3.565,4.973113,
3.566,4.973771,
3.567,4.973442,
3.568,4.973113,
3.569,4.972456,
3.57,4.973442,
3.571,4.975086,
3.572,4.975086,
3.573,4.9741,
3.574,4.9741,
3.575,4.973442,
3.576,4.973442,
3.577,4.973442,
3.578,4.971798,
3.579,4.972785,
3.58,4.974428,
3.581,4.973771,
3.582,4.9741,
3.583,4.972785,
3.584,4.972785,
3.585,4.972785,
3.586,4.970483,
3.587,4.970483,
3.588,4.971798,
3.589,4.973771,
3.59,4.973771,
3.591,4.971141,
3.592,4.971141,
3.593,4.973113,
3.594,4.972456,
3.595,4.971141,
3.596,4.971469,
3.597,4.973771,
3.598,4.9741,
3.599,4.973113,
3.6,4.971798,
3.601,4.972456,
3.602,4.973442,
3.603,4.973442,
3.604,4.972127,
3.605,4.975086,
3.606,4.976401,
3.607,4.977059,
3.608,4.974757,
3.609,4.973771,
3.61,4.975744,
3.611,4.976072,
3.612,4.974428,
3.613,4.975744,
3.614,4.97673,
3.615,4.977388,
3.616,4.976072,
3.617,4.973442,
3.618,4.975086,
3.619,4.975744,
3.62,4.975086,
3.621,4.974428,
3.622,4.973113,
3.623,4.975415,
3.624,4.974428,
3.625,4.972127,
3.626,4.970483,
3.627,4.970812,
3.628,4.973113,
3.629,4.972785,
3.63,4.970812,
3.631,4.972456,
3.632,4.973113,
3.633,4.971798,
3.634,4.970483,
3.635,4.969168,
3.636,4.970812,
3.637,4.972785,
3.638,4.972127,
3.639,4.971141,
3.64,4.971141,
3.641,4.971798,
3.642,4.972785,
3.643,4.971798,
3.644,4.971469,
3.645,4.973113,
3.646,4.975086,
3.647,4.973771,
3.648,4.972785,
3.649,4.972456,
3.65,0.103364,
3.651,0.088897,
3.652,0.088239,
3.653,0.088239,
3.654,0.087582,
3.655,0.08791,
3.656,0.088239,
3.657,0.08791,
3.658,0.087582,
3.659,0.088239,
3.66,0.08791,
3.661,0.088239,
3.662,0.08791,
3.663,0.088239,
3.664,0.08791,
3.665,0.088568,
3.666,0.08791,
3.667,0.088239,
3.668,0.088239,
3.669,0.08791,
3.67,0.08791,
3.671,0.088239,
3.672,0.087582,
3.673,0.08791,
3.674,0.088239,
3.675,0.08791,
3.676,0.08791,
3.677,0.087582,
3.678,0.088239,
3.679,0.08791,
3.68,0.08791,
3.681,0.08791,
3.682,0.08791,
3.683,0.08791,
3.684,0.08791,
3.685,0.088239,
3.686,0.08791,
3.687,0.08791,
3.688,0.088239,
3.689,0.08791,
3.69,0.087582,
3.691,0.088239,
3.692,0.088239,
3.693,0.08791,
3.694,0.088239,
3.695,0.088239,
3.696,0.088239,
3.697,0.08791,
3.698,0.087582,
3.699,0.1152,
3.7,4.972456,
3.701,4.970812,
3.702,4.972785,
3.703,4.973442,
3.704,4.973771,
3.705,4.972127,
3.706,4.971798,
3.707,4.972456,
3.708,4.973113,
3.709,4.971798,
3.71,4.970812,
3.711,4.971141,
3.712,4.9741,
3.713,4.974428,
3.714,4.971469,
3.715,4.971798,
3.716,4.973113,
3.717,4.972456,
3.718,4.972456,
3.719,4.971141,
3.72,4.974757,
3.721,4.975086,
3.722,4.975415,
3.723,4.974428,
3.724,4.973113,
3.725,4.974757,
3.726,4.974428,
3.727,4.973113,
3.728,4.973442,
3.729,4.973113,
3.73,4.975086,
3.731,4.974428,
3.732,4.973771,
3.733,4.972456,
3.734,4.972456,
3.735,4.973113,
3.736,4.972456,
3.737,4.971798,
3.738,4.972785,
3.739,4.973442,
3.74,4.9741,
3.741,4.971469,
3.742,4.970154,
3.743,4.972127,
3.744,4.971798,
3.745,4.970483,
3.746,4.970812,
3.747,4.972785,
3.748,4.973771,
3.749,4.972785,
3.75,4.970483,
3.751,4.971798,
3.752,4.973442,
3.753,4.972127,
3.754,4.971469,
3.755,4.973113,
3.756,4.975415,
3.757,4.976072,
3.758,4.974428,
3.759,4.973771,
3.76,4.975415,
3.761,4.974757,
3.762,4.975415,
3.763,4.9741,
3.764,4.975744,
3.765,4.977059,
3.766,4.976072,
3.767,4.9741,
3.768,4.973442,
3.769,4.975086,
3.77,4.976072,
3.771,4.975744,
3.772,4.975086,
3.773,4.975415,
3.774,4.975415,
3.775,4.975086,
3.776,4.972127,
3.777,4.971469,
3.778,4.973113,
3.779,4.973442,
3.78,4.973442,
3.781,4.971141,
3.782,4.971798,
3.783,4.972127,
3.784,4.970154,
3.785,4.969825,
3.786,4.970154,
3.787,4.972456,
3.788,4.971798,
3.789,4.970812,
3.79,4.970483,
3.791,4.972127,
3.792,4.970812,
3.793,4.971141,
3.794,4.970483,
3.795,4.972785,
3.796,4.974428,
3.797,4.973442,
3.798,4.973771,
3.799,4.973771,
3.8,4.973771,
3.801,4.973771,
3.802,4.972785,
3.803,4.972456,
3.804,4.974428,
3.805,4.975086,
3.806,4.9741,
3.807,4.973442,
3.808,4.973442,
3.809,4.974757,
3.81,4.973771,
3.811,4.972456,
3.812,4.972127,
3.813,4.974428,
3.814,4.974428,
3.815,4.975086,
3.816,4.972456,
3.817,4.971141,
3.818,4.972785,
3.819,4.973771,
3.82,4.971798,
3.821,4.972127,
3.822,4.9741,
3.823,4.9741,
3.824,4.974428,
3.825,4.971798,
3.826,4.971469,
3.827,4.973771,
3.828,4.972785,
3.829,4.972785,
3.83,4.972127,
3.831,4.975415,
3.832,4.975086,
3.833,4.972785,
3.834,4.972785,
3.835,4.974757,
3.836,4.975415,
3.837,4.974757,
3.838,4.975415,
3.839,4.975086,
3.84,4.97673,
3.841,4.975744,
3.842,4.973113,
3.843,4.973771,
3.844,4.975415,
3.845,4.976401,
3.846,4.9741,
3.847,4.973771,
3.848,4.975744,
3.849,4.976072,
3.85,4.974757,
3.851,4.972127,
3.852,4.971798,
3.853,4.974428,
3.854,4.973442,
3.855,4.971798,
3.856,4.971798,
3.857,4.971798,
3.858,4.972785,
3.859,4.971469,
3.86,4.969825,
3.861,4.970812,
3.862,4.972785,
3.863,4.973113,
3.864,4.971141,
3.865,4.971141,
3.866,4.972127,
3.867,4.971141,
3.868,4.969825,
3.869,4.971141,
3.87,4.971798,
3.871,4.973771,
3.872,4.973442,
3.873,4.973113,
3.874,4.973442,
3.875,4.9741,
3.876,4.973771,
3.877,4.973442,
3.878,4.972127,
3.879,4.9741,
3.88,4.975086,
3.881,4.974428,
3.882,4.974428,
3.883,4.9741,
3.884,4.974428,
3.885,4.974428,
3.886,4.973442,
3.887,4.975086,
3.888,4.974757,
3.889,4.974428,
3.89,4.975415,
3.891,4.973113,
3.892,4.971798,
3.893,4.973113,
3.894,4.972127,
3.895,4.971469,
3.896,4.971798,
3.897,4.9741,
3.898,4.973771,
3.899,4.973113,
3.9,4.971469,
3.901,4.973113,
3.902,4.973442,
3.903,4.9741,
3.904,4.972127,
3.905,4.972785,
3.906,4.973771,
3.907,4.9741,
3.908,4.973113,
3.909,4.971469,
3.91,4.973771,
3.911,4.975086,
3.912,4.975744,
3.913,4.973771,
3.914,4.974428,
3.915,4.976401,
3.916,4.97673,
3.917,4.973113,
3.918,4.973113,
3.919,4.9741,
3.92,4.975086,
3.921,4.976072,
3.922,4.973442,
3.923,4.9741,
3.924,4.976072,
3.925,4.973771,
3.926,4.972456,
3.927,4.971141,
3.928,4.973442,
3.929,4.9741,
3.93,4.972127,
3.931,4.971798,
3.932,4.971798,
3.933,4.972127,
3.934,4.970483,
3.935,4.969168,
3.936,4.970154,
3.937,4.971469,
3.938,4.973113,
3.939,4.971141,
3.94,4.970812,
3.941,4.971469,
3.942,4.971798,
3.943,4.970154,
3.944,4.970154,
3.945,4.970812,
3.946,4.972127,
3.947,4.973771,
3.948,4.972785,
3.949,4.972785,
3.95,4.973113,
3.951,4.973113,
3.952,4.973442,
3.953,4.972456,
3.954,4.973442,
3.955,4.974757,
3.956,4.975086,
3.957,4.974757,
3.958,4.973771,
3.959,4.973442,
3.96,4.973771,
3.961,4.973113,
3.962,4.972785,
3.963,4.974428,
3.964,4.975086,
3.965,4.974757,
3.966,4.972456,
3.967,4.971469,
3.968,4.973113,
3.969,4.972456,
3.97,4.971141,
3.971,4.971469,
3.972,4.973113,
3.973,4.973771,
3.974,4.973113,
3.975,4.970154,
3.976,4.972785,
3.977,4.973113,
3.978,4.972456,
3.979,4.971141,
3.98,4.972127,
3.981,4.9741,
3.982,4.975086,
3.983,4.972456,
3.984,4.970483,
3.985,4.973113,
3.986,4.975415,
3.987,4.975744,
3.988,4.9741,
3.989,4.974757,
3.99,4.976401,
3.991,4.977059,
3.992,4.975086,
3.993,4.972785,
3.994,4.9741,
3.995,4.975744,
3.996,4.97673,
3.997,4.975086,
3.998,4.9741,
3.999,4.975415,
4,4.975744,
4.001,4.9741,
4.002,4.973442,
4.003,4.973771,
4.004,4.975415,
4.005,4.974428,
4.006,4.972785,
4.007,4.971798,
4.008,4.973113,
4.009,4.972127,
4.01,4.971141,
4.011,4.969825,
4.012,4.971469,
4.013,4.973113,
4.014,4.971141,
4.015,4.971469,
4.016,4.970812,
4.017,4.971469,
4.018,4.971141,
4.019,4.969497,
4.02,4.970154,
4.021,4.972785,
4.022,4.972785,
4.023,4.971798,
4.024,4.972127,
4.025,4.971469,
4.026,4.973113,
4.027,4.973113,
4.028,4.973113,
4.029,4.973113,
4.03,4.974757,
4.031,4.976072,
4.032,4.974428,
4.033,4.972785,
4.034,4.973113,
4.035,4.975086,
4.036,4.975415,
4.037,4.972785,
4.038,4.972785,
4.039,4.975744,
4.04,4.97673,
4.041,4.975744,
4.042,4.972456,
4.043,4.972785,
4.044,4.973771,
4.045,4.972456,
4.046,4.971469,
4.047,4.973113,
4.048,4.974428,
4.049,4.974428,
4.05,4.971141,
4.051,4.970483,
4.052,4.973442,
4.053,4.973113,
4.054,4.972456,
4.055,4.972456,
4.056,4.974428,
4.057,4.974757,
4.058,4.973113,
4.059,4.971469,
4.06,4.972785,
4.061,4.973113,
4.062,4.9741,
4.063,4.973113,
4.064,4.974428,
4.065,4.976072,
4.066,4.976072,
4.067,4.974428,
4.068,4.9741,
4.069,4.975086,
4.07,4.976401,
4.071,4.975744,
4.072,4.974757,
4.073,4.975086,
4.074,4.975415,
4.075,4.975415,
4.076,4.973442,
4.077,4.973113,
4.078,4.974428,
4.079,4.976072,
4.08,4.9741,
4.081,4.973442,
4.082,4.972456,
4.083,4.973442,
4.084,4.971798,
4.085,4.970154,
4.086,4.970812,
4.087,4.971469,
4.088,4.972127,
4.089,4.970812,
4.09,4.970812,
4.091,4.969825,
4.092,4.971469,
4.093,4.971469,
4.094,4.970154,
4.095,4.969168,
4.096,4.971469,
4.097,4.972456,
4.098,4.972127,
4.099,4.971141,
4.1,4.970483,
4.101,4.973113,
4.102,4.9741,
4.103,4.971798,
4.104,4.972456,
4.105,4.9741,
4.106,4.975086,
4.107,4.976401,
4.108,4.973442,
4.109,4.972785,
4.11,4.975086,
4.111,4.974428,
4.112,4.9741,
4.113,4.973442,
4.114,4.975086,
4.115,4.977388,
4.116,4.973442,
4.117,4.972785,
4.118,4.9741,
4.119,4.975086,
4.12,4.973771,
4.121,4.972456,
4.122,4.973113,
4.123,4.9741,
4.124,4.9741,
4.125,4.971141,
4.126,4.971469,
4.127,4.972785,
4.128,4.973442,
4.129,4.972456,
4.13,4.972456,
4.131,4.973771,
4.132,4.9741,
4.133,4.973442,
4.134,4.971141,
4.135,4.971798,
4.136,4.973442,
4.137,4.9741,
4.138,4.973771,
4.139,4.972785,
4.14,4.974428,
4.141,4.975415,
4.142,4.974757,
4.143,4.973113,
4.144,4.9741,
4.145,4.975744,
4.146,4.975744,
4.147,4.9741,
4.148,4.973442,
4.149,4.974757,
4.15,4.975086,
4.151,4.973442,
4.152,4.972785,
4.153,4.972785,
4.154,4.975086,
4.155,4.975086,
4.156,4.973113,
4.157,4.972127,
4.158,4.971469,
4.159,4.972127,
4.16,4.972456,
4.161,4.970812,
4.162,4.969497,
4.163,4.971469,
4.164,4.973113,
4.165,4.972127,
4.166,4.970154,
4.167,4.970154,
4.168,4.971141,
4.169,4.971469,
4.17,4.970483,
4.171,4.970154,
4.172,4.972127,
4.173,4.973771,
4.174,4.973113,
4.175,4.970483,
4.176,4.970812,
4.177,4.973113,
4.178,4.973442,
4.179,4.973113,
4.18,4.9741,
4.181,4.976401,
4.182,4.977059,
4.183,4.974428,
4.184,4.973771,
4.185,4.975415,
4.186,4.975744,
4.187,4.975086,
4.188,4.974428,
4.189,4.975086,
4.19,4.975744,
4.191,4.97673,
4.192,4.973113,
4.193,4.973771,
4.194,4.974757,
4.195,4.975744,
4.196,4.974428,
4.197,4.972456,
4.198,4.974428,
4.199,4.975086,
4.2,4.973113,
4.201,4.971469,
4.202,4.971141,
4.203,4.973113,
4.204,4.9741,
4.205,4.972785,
4.206,4.972456,
4.207,4.972456,
4.208,4.973442,
4.209,4.972456,
4.21,4.971141,
4.211,4.971469,
4.212,4.973771,
4.213,4.974428,
4.214,4.973442,
4.215,4.971469,
4.216,4.973771,
4.217,4.973771,
4.218,4.974428,
4.219,4.972785,
4.22,4.972456,
4.221,4.975744,
4.222,4.975415,
4.223,4.974428,
4.224,4.973771,
4.225,4.973442,
4.226,4.973771,
4.227,4.974428,
4.228,4.971798,
4.229,4.973113,
4.23,4.974757,
4.231,4.974428,
4.232,4.973442,
4.233,4.971798,
4.234,4.972127,
4.235,4.972456,
4.236,4.971798,
4.237,4.970812,
4.238,4.970812,
4.239,4.972456,
4.24,4.973442,
4.241,4.971469,
4.242,4.969168,
4.243,4.970483,
4.244,4.971141,
4.245,4.970812,
4.246,4.970483,
4.247,4.971798,
4.248,4.9741,
4.249,4.973442,
4.25,4.970812,
4.251,4.971798,
4.252,4.972456,
4.253,4.9741,
4.254,4.972785,
4.255,4.973442,
4.256,4.976072,
4.257,4.977059,
4.258,4.975744,
4.259,4.973771,
4.26,4.974428,
4.261,4.976401,
4.262,4.97673,
4.263,4.974757,
4.264,4.975744,
4.265,4.976401,
4.266,4.976401,
4.267,4.974428,
4.268,4.973442,
4.269,4.975086,
4.27,4.976072,
4.271,4.975415,
4.272,4.973442,
4.273,4.972785,
4.274,4.9741,
4.275,4.973442,
4.276,4.971798,
4.277,4.970483,
4.278,4.972456,
4.279,4.973771,
4.28,4.973113,
4.281,4.972456,
4.282,4.972127,
4.283,4.972785,
4.284,4.972456,
4.285,4.971469,
4.286,4.971141,
4.287,4.972456,
4.288,4.972785,
4.289,4.972456,
4.29,4.971798,
4.291,4.973113,
4.292,4.973442,
4.293,4.972127,
4.294,4.971798,
4.295,4.972456,
4.296,4.9741,
4.297,4.974757,
4.298,4.974428,
4.299,4.9741,
4.3,4.974428,
4.301,4.973771,
4.302,4.973113,
4.303,4.972456,
4.304,4.973771,
4.305,4.975744,
4.306,4.975415,
4.307,4.974428,
4.308,4.972785,
4.309,4.972456,
4.31,4.974428,
4.311,4.972456,
4.312,4.971141,
4.313,4.971798,
4.314,4.972785,
4.315,4.974757,
4.316,4.972785,
4.317,4.968839,
4.318,4.971798,
4.319,4.972456,
4.32,4.973113,
4.321,4.972127,
4.322,4.971469,
4.323,4.975086,
4.324,4.975086,
4.325,4.971141,
4.326,4.970812,
4.327,4.972456,
4.328,4.974428,
4.329,4.9741,
4.33,4.972785,
4.331,4.975086,
4.332,4.977388,
4.333,4.976401,
4.334,4.974428,
4.335,4.9741,
4.336,4.975415,
4.337,4.977059,
4.338,4.976401,
4.339,4.974757,
4.34,4.975086,
4.341,4.97673,
4.342,4.976072,
4.343,4.973113,
4.344,4.973442,
4.345,4.974757,
4.346,4.976072,
4.347,4.975086,
4.348,4.9741,
4.349,4.973113,
4.35,4.973442,
4.351,4.972456,
4.352,4.971798,
4.353,4.972127,
4.354,4.972456,
4.355,4.9741,
4.356,4.972785,
4.357,4.970812,
4.358,4.970812,
4.359,4.971141,
4.36,4.971798,
4.361,4.970154,
4.362,4.970812,
4.363,4.971798,
4.364,4.973442,
4.365,4.972456,
4.366,4.970483,
4.367,4.971141,
4.368,4.972785,
4.369,4.972127,
4.37,4.971798,
4.371,4.973113,
4.372,4.974757,
4.373,4.975415,
4.374,4.973771,
4.375,4.971798,
4.376,4.973771,
4.377,4.9741,
4.378,4.974428,
4.379,4.972456,
4.38,4.973113,
4.381,4.975086,
4.382,4.975415,
4.383,4.973113,
4.384,4.971798,
4.385,4.973113,
4.386,4.9741,
4.387,4.972785,
4.388,4.971469,
4.389,4.972456,
4.39,4.9741,
4.391,4.973771,
4.392,4.971141,
4.393,4.969825,
4.394,4.972127,
4.395,4.972456,
4.396,4.971798,
4.397,4.970483,
4.398,4.971798,
4.399,4.974428,
4.4,4.973113,
4.401,4.971469,
4.402,4.971141,
4.403,4.972456,
4.404,4.974428,
4.405,4.973771,
4.406,4.972785,
4.407,4.973771,
4.408,4.975744,
4.409,4.975415,
4.41,4.973771,
4.411,4.974757,
4.412,4.976401,
4.413,4.97673,
4.414,4.975086,
4.415,4.975086,
4.416,4.975415,
4.417,4.975744,
4.418,4.974757,
4.419,4.974757,
4.42,4.974757,
4.421,4.976072,
4.422,4.977059,
4.423,4.974757,
4.424,4.973771,
4.425,4.974757,
4.426,4.973771,
4.427,4.972785,
4.428,4.972456,
4.429,4.972785,
4.43,4.974428,
4.431,4.972785,
4.432,4.971469,
4.433,4.970812,
4.434,4.972456,
4.435,4.972456,
4.436,4.971141,
4.437,4.971469,
4.438,4.972785,
4.439,4.973113,
4.44,4.972456,
4.441,4.970483,
4.442,4.970483,
4.443,4.972127,
4.444,4.972127,
4.445,4.971469,
4.446,4.972785,
4.447,4.9741,
4.448,4.9741,
4.449,4.973442,
4.45,4.971469,
4.451,4.973113,
4.452,4.974428,
4.453,4.974428,
4.454,4.972456,
4.455,4.973113,
4.456,4.975086,
4.457,4.975744,
4.458,4.972456,
4.459,4.971798,
4.46,4.973442,
4.461,4.974757,
4.462,4.973442,
4.463,4.972127,
4.464,4.972456,
4.465,4.974757,
4.466,4.9741,
4.467,4.969825,
4.468,4.970154,
4.469,4.972456,
4.47,4.9741,
4.471,4.972127,
4.472,4.972127,
4.473,4.973113,
4.474,4.9741,
4.475,4.972127,
4.476,4.970812,
4.477,4.972127,
4.478,4.973113,
4.479,4.973771,
4.48,4.973113,
4.481,4.972456,
4.482,4.974757,
4.483,4.975086,
4.484,4.972785,
4.485,4.973771,
4.486,4.973442,
4.487,4.974757,
4.488,4.977059,
4.489,4.975086,
4.49,4.975086,
4.491,4.9741,
4.492,4.974428,
4.493,4.97673,
4.494,4.973771,
4.495,4.973771,
4.496,4.976401,
4.497,4.975744,
4.498,4.975086,
4.499,4.973442,
4.5,4.974428,
4.501,4.974428,
4.502,4.971798,
4.503,4.971798,
4.504,4.971798,
4.505,4.973113,
4.506,4.972456,
4.507,4.970812,
4.508,4.969497,
4.509,4.970154,
4.51,4.971469,
4.511,4.970483,
4.512,4.969497,
4.513,4.971141,
4.514,4.973113,
4.515,4.972785,
4.516,4.970483,
4.517,4.969168,
4.518,4.971141,
4.519,4.972456,
4.52,4.972127,
4.521,4.971141,
4.522,4.972127,
4.523,4.975086,
4.524,4.975744,
4.525,4.972785,
4.526,4.971798,
4.527,4.973442,
4.528,4.974757,
4.529,4.974428,
4.53,4.973113,
4.531,4.974757,
4.532,4.976072,
4.533,4.9741,
4.534,4.973113,
4.535,4.972785,
4.536,4.974428,
4.537,4.975744,
4.538,4.974428,
4.539,4.973771,
4.54,4.974428,
4.541,4.974757,
4.542,4.973442,
4.543,4.971141,
4.544,4.971469,
4.545,4.973442,
4.546,4.972785,
4.547,4.972456,
4.548,4.972127,
4.549,4.973771,
4.55,4.973442,
4.551,4.971798,
4.552,4.972456,
4.553,4.971798,
4.554,4.973771,
4.555,4.973771,
4.556,4.972456,
4.557,4.972785,
4.558,4.974428,
4.559,4.973113,
4.56,4.973113,
4.561,4.973442,
4.562,4.975415,
4.563,4.976401,
4.564,4.974757,
4.565,4.974428,
4.566,4.974757,
4.567,4.974428,
4.568,4.975415,
4.569,4.972785,
4.57,4.973771,
4.571,4.975415,
4.572,4.975744,
4.573,4.973113,
4.574,4.973442,
4.575,4.973442,
4.576,4.974428,
4.577,4.972456,
4.578,4.971141,
4.579,4.972127,
4.58,4.973113,
4.581,4.972785,
4.582,4.971141,
4.583,4.969497,
4.584,4.971141,
4.585,4.971141,
4.586,4.923137,
4.587,0.10172,
4.588,0.088897,
4.589,0.08791,
4.59,0.088239,
4.591,0.087582,
4.592,0.08791,
4.593,0.087582,
4.594,0.08791,
4.595,0.087582,
4.596,0.088239,
4.597,0.08791,
4.598,0.088568,
4.599,0.088239,
4.6,0.08791,
4.601,0.08791,
4.602,0.08791,
4.603,0.088239,
4.604,0.08791,
4.605,0.088568,
4.606,0.087582,
4.607,0.08791,
4.608,0.087582,
4.609,0.08791,
4.61,0.08791,
4.611,0.08791,
4.612,0.08791,
4.613,0.088239,
4.614,0.08791,
4.615,0.08791,
4.616,0.088239,
4.617,0.08791,
4.618,0.08791,
4.619,0.08791,
4.62,0.087582,
4.621,0.087582,
4.622,0.088239,
4.623,0.08791,
4.624,0.08791,
4.625,0.088239,
4.626,0.08791,
4.627,0.088568,
4.628,0.088239,
4.629,0.08791,
4.63,0.08791,
4.631,0.08791,
4.632,0.08791,
4.633,0.08791,
4.634,0.095801,
4.635,0.105336,
4.636,0.160573,
4.637,4.972456,
4.638,4.974757,
4.639,4.975744,
4.64,4.973771,
4.641,4.973113,
4.642,4.973771,
4.643,4.975086,
4.644,4.973113,
4.645,4.972785,
4.646,4.974428,
4.647,4.975086,
4.648,4.974757,
4.649,4.973113,
4.65,4.972127,
4.651,4.973771,
4.652,4.9741,
4.653,4.973113,
4.654,4.972456,
4.655,4.973113,
4.656,4.973442,
4.657,4.972127,
4.658,4.970154,
4.659,4.970483,
4.66,4.971141,
4.661,4.970154,
4.662,4.970154,
4.663,4.970483,
4.664,4.971798,
4.665,4.973442,
4.666,4.971141,
4.667,4.969168,
4.668,4.970812,
4.669,4.972127,
4.67,4.972785,
4.671,4.971141,
4.672,4.971141,
4.673,4.974428,
4.674,4.975086,
4.675,4.9741,
4.676,4.972456,
4.677,4.9741,
4.678,4.976072,
4.679,4.976401,
4.68,4.974757,
4.681,4.974428,
4.682,4.977059,
4.683,4.977059,
4.684,4.974428,
4.685,4.974757,
4.686,4.975086,
4.687,4.97673,
4.688,4.976401,
4.689,4.974757,
4.69,4.974757,
4.691,4.976401,
4.692,4.974428,
4.693,4.972785,
4.694,4.972456,
4.695,4.975086,
4.696,4.9741,
4.697,4.973113,
4.698,4.972456,
4.699,4.972785,
4.7,4.972456,
4.701,4.972456,
4.702,4.971469,
4.703,4.971798,
4.704,4.974428,
4.705,4.973771,
4.706,4.972785,
4.707,4.971469,
4.708,4.972127,
4.709,4.972456,
4.71,4.971141,
4.711,4.970483,
4.712,4.971469,
4.713,4.9741,
4.714,4.975086,
4.715,4.973113,
4.716,4.973113,
4.717,4.973113,
4.718,4.974757,
4.719,4.973113,
4.72,4.972785,
4.721,4.975086,
4.722,4.975744,
4.723,4.974757,
4.724,4.972456,
4.725,4.972127,
4.726,4.9741,
4.727,4.973771,
4.728,4.972785,
4.729,4.972127,
4.73,4.973771,
4.731,4.975086,
4.732,4.9741,
4.733,4.969825,
4.734,4.970154,
4.735,4.972456,
4.736,4.972127,
4.737,4.970154,
4.738,4.970154,
4.739,4.971141,
4.74,4.9741,
4.741,4.971469,
4.742,4.968839,
4.743,4.969825,
4.744,4.971141,
4.745,4.971469,
4.746,4.971141,
4.747,4.970483,
4.748,4.972456,
4.749,4.973442,
4.75,4.971469,
4.751,4.971141,
4.752,4.972456,
4.753,4.975086,
4.754,4.974428,
4.755,4.974428,
4.756,4.974428,
4.757,4.977059,
4.758,4.975744,
4.759,4.9741,
4.76,4.9741,
4.761,4.976072,
4.762,4.976401,
4.763,4.974757,
4.764,4.974428,
4.765,4.975415,
4.766,4.977059,
4.767,4.974428,
4.768,4.973113,
4.769,4.973113,
4.77,4.9741,
4.771,4.974757,
4.772,4.972785,
4.773,4.972785,
4.774,4.973442,
4.775,4.973771,
4.776,4.972456,
4.777,4.971141,
4.778,4.972127,
4.779,4.974757,
4.78,4.973113,
4.781,4.972127,
4.782,4.971798,
4.783,4.972785,
4.784,4.973113,
4.785,4.972127,
4.786,4.970483,
4.787,4.971469,
4.788,4.9741,
4.789,4.9741,
4.79,4.972785,
4.791,4.972127,
4.792,4.973442,
4.793,4.974757,
4.794,4.972785,
4.795,4.973771,
4.796,4.975744,
4.797,4.975086,
4.798,4.973771,
4.799,4.973113,
4.8,4.973113,
4.801,4.974428,
4.802,4.973113,
4.803,4.973113,
4.804,4.9741,
4.805,4.974428,
4.806,4.974757,
4.807,4.971798,
4.808,4.971469,
4.809,4.972127,
4.81,4.971469,
4.811,4.970483,
4.812,4.969497,
4.813,4.972127,
4.814,4.972127,
4.815,4.972456,
4.816,4.970483,
4.817,4.969168,
4.818,4.970812,
4.819,4.972456,
4.82,4.970154,
4.821,4.972785,
4.822,4.973113,
4.823,4.974428,
4.824,4.973771,
4.825,4.971141,
4.826,4.972127,
4.827,4.973771,
4.828,4.974428,
4.829,4.973442,
4.83,4.973771,
4.831,4.976401,
4.832,4.977388,
4.833,4.975415,
4.834,4.9741,
4.835,4.974757,
4.836,4.976072,
4.837,4.97673,
4.838,4.975086,
4.839,4.975086,
4.84,4.976072,
4.841,4.97673,
4.842,4.975086,
4.843,4.973442,
4.844,4.974757,
4.845,4.975415,
4.846,4.973771,
4.847,4.973442,
4.848,4.972785,
4.849,4.9741,
4.85,4.973113,
4.851,4.971469,
4.852,4.971141,
4.853,4.973442,
4.854,4.973771,
4.855,4.971798,
4.856,4.972127,
4.857,4.973113,
4.858,4.973771,
4.859,4.972456,
4.86,4.971469,
4.861,4.971469,
4.862,4.973771,
4.863,4.973771,
4.864,4.972456,
4.865,4.973442,
4.866,4.974757,
4.867,4.974757,
4.868,4.975086,
4.869,4.973442,
4.87,4.975415,
4.871,4.97673,
4.872,4.976072,
4.873,4.975744,
4.874,4.975086,
4.875,4.973113,
4.876,4.975415,
4.877,4.976072,
4.878,4.973771,
4.879,4.973771,
4.88,4.975744,
4.881,4.976072,
4.882,4.975086,
4.883,4.971141,
4.884,4.971798,
4.885,4.974757,
4.886,4.973113,
4.887,4.971798,
4.888,4.970483,
4.889,4.972127,
4.89,4.973113,
4.891,4.971469,
4.892,4.969168,
4.893,4.971141,
4.894,4.971469,
4.895,4.971469,
4.896,4.969825,
4.897,4.971141,
4.898,4.972127,
4.899,4.972785,
4.9,4.969825,
4.901,4.970154,
4.902,4.972127,
4.903,4.972785,
4.904,4.970812,
4.905,4.972456,
4.906,4.9741,
4.907,4.975744,
4.908,4.973442,
4.909,4.971469,
4.91,4.9741,
4.911,4.975415,
4.912,4.974428,
4.913,4.973113,
4.914,4.973771,
4.915,4.975744,
4.916,4.975744,
4.917,4.972127,
4.918,4.972456,
4.919,4.974428,
4.92,4.976401,
4.921,4.975086,
4.922,4.973113,
4.923,4.973771,
4.924,4.975744,
4.925,4.974428,
4.926,4.971798,
4.927,4.971141,
4.928,4.973113,
4.929,4.975086,
4.93,4.973771,
4.931,4.972127,
4.932,4.972785,
4.933,4.973113,
4.934,4.972785,
4.935,4.971141,
4.936,4.971798,
4.937,4.973771,
4.938,4.974757,
4.939,4.973771,
4.94,4.973113,
4.941,4.973113,
4.942,4.9741,
4.943,4.973442,
4.944,4.973771,
4.945,4.975086,
4.946,4.976072,
4.947,4.975744,
4.948,4.973771,
4.949,4.974428,
4.95,4.974428,
4.951,4.974428,
4.952,4.9741,
4.953,4.973113,
4.954,4.9741,
4.955,4.975744,
4.956,4.973771,
4.957,4.973442,
4.958,4.972785,
4.959,4.973113,
4.96,4.973442,
4.961,4.970483,
4.962,4.971141,
4.963,4.973771,
4.964,4.973442,
4.965,4.972456,
4.966,4.969168,
4.967,4.969825,
4.968,4.972456,
4.969,4.971141,
4.97,4.969825,
4.971,4.970812,
4.972,4.972785,
4.973,4.973113,
4.974,4.971141,
4.975,4.969825,
4.976,4.971141,
4.977,4.970483,
4.978,4.970483,
4.979,4.971469,
4.98,4.973442,
4.981,4.9741,
4.982,4.973442,
4.983,4.972456,
4.984,4.973113,
4.985,4.9741,
4.986,4.973442,
4.987,4.973771,
4.988,4.974428,
4.989,4.975744,
4.99,4.976072,
4.991,4.9741,
4.992,4.972785,
4.993,4.973771,
4.994,4.974757,
4.995,4.973113,
4.996,4.973442,
4.997,4.974757,
4.998,4.976401,
4.999,4.974428,
5,4.970812,
5.001,4.971469,
5.002,4.973113,
5.003,4.972456,
5.004,4.971141,
5.005,4.971798,
5.006,4.973442,
5.007,4.974757,
5.008,4.972456,
5.009,4.971141,
5.01,4.971798,
5.011,4.973113,
5.012,4.974428,
5.013,4.972785,
5.014,4.972127,
5.015,4.973771,
5.016,4.974428,
5.017,4.972785,
5.018,4.971798,
5.019,4.973113,
5.02,4.976072,
5.021,4.976072,
5.022,4.975086,
5.023,4.973113,
5.024,4.975744,
5.025,4.975744,
5.026,4.9741,
5.027,4.973113,
5.028,4.974757,
5.029,4.976072,
5.03,4.976401,
5.031,4.974757,
5.032,4.9741,
5.033,4.975086,
5.034,4.974428,
5.035,4.973771,
5.036,4.972456,
5.037,4.9741,
5.038,4.975086,
5.039,4.973113,
5.04,4.971469,
5.041,4.971469,
5.042,4.970812,
5.043,4.972456,
5.044,4.971141,
5.045,4.970154,
5.046,4.972127,
5.047,4.972456,
5.048,4.971798,
5.049,4.970483,
5.05,4.969825,
5.051,4.971798,
5.052,4.971141,
5.053,4.970812,
5.054,4.970154,
5.055,4.972127,
5.056,4.973442,
5.057,4.973113,
5.058,4.971469,
5.059,4.972456,
5.06,4.973771,
5.061,4.9741,
5.062,4.973113,
5.063,4.973771,
5.064,4.975086,
5.065,4.976401,
5.066,4.972785,
5.067,4.972456,
5.068,4.9741,
5.069,4.975086,
5.07,4.9741,
5.071,4.973113,
5.072,4.975086,
5.073,4.97673,
5.074,4.975415,
5.075,4.972127,
5.076,4.972456,
5.077,4.973442,
5.078,4.972785,
5.079,4.971141,
5.08,4.971469,
5.081,4.972456,
5.082,4.974757,
5.083,4.972127,
5.084,4.970483,
5.085,4.971469,
5.086,4.972785,
5.087,4.973113,
5.088,4.972456,
5.089,4.972456,
5.09,4.972785,
5.091,4.9741,
5.092,4.972785,
5.093,4.972785,
5.094,4.973113,
5.095,4.974757,
5.096,4.974428,
5.097,4.973771,
5.098,4.974757,
5.099,4.977716,
5.1,4.974757,
5.101,4.974428,
5.102,4.973771,
5.103,4.975744,
5.104,4.975415,
5.105,4.973771,
5.106,4.9741,
5.107,4.974428,
5.108,4.974428,
5.109,4.973113,
5.11,4.970812,
5.111,4.973113,
5.112,4.974428,
5.113,4.973442,
5.114,4.971469,
5.115,4.971798,
5.116,4.972785,
5.117,4.971798,
5.118,4.970154,
5.119,4.969825,
5.12,4.970812,
5.121,4.972785,
5.122,4.972456,
5.123,4.971798,
5.124,4.971469,
5.125,4.970812,
5.126,4.972456,
5.127,4.971141,
5.128,4.969825,
5.129,4.971798,
5.13,4.973113,
5.131,4.971798,
5.132,4.972785,
5.133,4.970483,
5.134,4.973113,
5.135,4.975415,
5.136,4.973771,
5.137,4.973442,
5.138,4.975086,
5.139,4.976072,
5.14,4.977388,
5.141,4.974428,
5.142,4.972456,
5.143,4.975086,
5.144,4.976072,
5.145,4.975744,
5.146,4.973771,
5.147,4.975415,
5.148,4.97673,
5.149,4.975744,
5.15,4.973113,
5.151,4.973442,
5.152,4.974428,
5.153,4.974757,
5.154,4.973113,
5.155,4.973771,
5.156,4.973771,
5.157,4.974757,
5.158,4.972456,
5.159,4.970812,
5.16,4.972127,
5.161,4.9741,
5.162,4.973113,
5.163,4.972127,
5.164,4.971798,
5.165,4.973113,
5.166,4.974757,
5.167,4.972785,
5.168,4.970812,
5.169,4.972127,
5.17,4.973771,
5.171,4.975086,
5.172,4.973113,
5.173,4.973771,
5.174,4.974757,
5.175,4.975086,
5.176,4.974428,
5.177,4.973442,
5.178,4.975415,
5.179,4.976401,
5.18,4.974428,
5.181,4.973771,
5.182,4.973771,
5.183,4.973442,
5.184,4.973771,
5.185,4.972456,
5.186,4.973113,
5.187,4.974757,
5.188,4.973771,
5.189,4.973113,
5.19,4.972456,
5.191,4.971798,
5.192,4.972127,
5.193,4.971141,
5.194,4.969497,
5.195,4.971798,
5.196,4.971469,
5.197,4.971141,
5.198,4.970812,
5.199,4.971141,
5.2,4.970812,
5.201,4.971141,
5.202,4.971141,
5.203,4.971141,
5.204,4.970812,
5.205,4.972785,
5.206,4.973442,
5.207,4.973113,
5.208,4.971141,
5.209,4.971798,
5.21,4.974428,
5.211,4.974428,
5.212,4.972785,
5.213,4.974428,
5.214,4.976072,
5.215,4.977059,
5.216,4.9741,
5.217,4.973442,
5.218,4.976072,
5.219,4.977059,
5.22,4.9741,
5.221,4.974428,
5.222,4.975744,
5.223,4.97673,
5.224,4.97673,
5.225,4.973442,
5.226,4.973113,
5.227,4.975415,
5.228,4.975086,
5.229,4.9741,
5.23,4.972785,
5.231,4.973771,
5.232,4.974428,
5.233,4.973442,
5.234,4.971469,
5.235,4.970483,
5.236,4.973442,
5.237,4.973771,
5.238,4.973113,
5.239,4.972456,
5.24,4.972127,
5.241,4.973113,
5.242,4.972127,
5.243,4.971141,
5.244,4.972127,
5.245,4.973442,
5.246,4.9741,
5.247,4.974428,
5.248,4.973442,
5.249,4.976072,
5.25,4.975086,
5.251,4.974428,
5.252,4.9741,
5.253,4.975744,
5.254,4.975744,
5.255,4.976401,
5.256,4.974757,
5.257,4.973771,
5.258,4.975086,
5.259,4.975086,
5.26,4.974428,
5.261,4.973442,
5.262,4.9741,
5.263,4.975744,
5.264,4.975415,
5.265,4.973442,
5.266,4.971469,
5.267,4.971469,
5.268,4.973113,
5.269,4.971141,
5.27,4.970154,
5.271,4.970483,
5.272,4.972785,
5.273,4.973113,
5.274,4.970154,
5.275,4.969168,
5.276,4.970812,
5.277,4.971469,
5.278,4.971141,
5.279,4.970483,
5.28,4.971798,
5.281,4.972456,
5.282,4.972456,
5.283,4.970483,
5.284,4.969825,
5.285,4.971469,
5.286,4.973771,
5.287,4.972456,
5.288,4.972456,
5.289,4.974757,
5.29,4.976401,
5.291,4.974428,
5.292,4.972785,
5.293,4.972785,
5.294,4.974757,
5.295,4.974428,
5.296,4.973442,
5.297,4.973771,
5.298,4.976072,
5.299,4.976401,
5.3,4.973113,
5.301,4.973113,
5.302,4.974757,
5.303,4.975744,
5.304,4.973442,
5.305,4.973442,
5.306,4.974428,
5.307,4.974757,
5.308,4.973113,
5.309,4.971469,
5.31,4.971141,
5.311,4.973113,
5.312,4.9741,
5.313,4.971798,
5.314,4.971798,
5.315,4.973113,
5.316,4.974757,
5.317,4.972456,
5.318,4.971469,
5.319,4.971469,
5.32,4.973771,
5.321,4.974428,
5.322,4.972456,
5.323,4.973442,
5.324,4.974428,
5.325,4.975744,
5.326,4.974757,
5.327,4.973442,
5.328,4.975086,
5.329,4.976401,
5.33,4.977059,
5.331,4.975744,
5.332,4.975086,
5.333,4.976072,
5.334,4.975744,
5.335,4.974428,
5.336,4.974428,
5.337,4.976072,
5.338,4.976401,
5.339,4.975744,
5.34,4.975086,
5.341,4.974757,
5.342,4.974757,
5.343,4.973771,
5.344,4.972456,
5.345,4.973442,
5.346,4.974428,
5.347,4.9741,
5.348,4.973113,
5.349,4.972127,
5.35,4.973113,
5.351,4.973113,
5.352,4.972785,
5.353,4.970812,
5.354,4.973113,
5.355,4.974428,
5.356,4.9741,
5.357,4.972785,
5.358,4.971141,
5.359,4.972127,
5.36,4.974428,
5.361,4.972456,
5.362,4.972127,
5.363,4.974428,
5.364,4.975744,
5.365,4.97673,
5.366,4.973442,
5.367,4.971798,
5.368,4.9741,
5.369,4.975086,
5.37,4.973771,
5.371,4.973442,
5.372,4.974757,
5.373,4.976401,
5.374,4.975086,
5.375,4.972456,
5.376,4.972785,
5.377,4.975415,
5.378,4.975086,
5.379,4.9741,
5.38,4.973771,
5.381,4.975415,
5.382,4.973771,
5.383,4.971798,
5.384,4.970812,
5.385,4.970154,
5.386,4.972456,
5.387,4.972785,
5.388,4.970812,
5.389,4.971469,
5.39,4.971141,
5.391,4.972127,
5.392,4.971141,
5.393,4.969497,
5.394,4.970154,
5.395,4.971798,
5.396,4.972456,
5.397,4.970812,
5.398,4.971469,
5.399,4.972456,
5.4,4.971798,
5.401,4.972456,
5.402,4.969825,
5.403,4.972456,
5.404,4.975415,
5.405,4.974757,
5.406,4.9741,
5.407,4.974428,
5.408,4.9741,
5.409,4.974757,
5.41,4.974428,
5.411,4.971798,
5.412,4.973771,
5.413,4.975086,
5.414,4.976072,
5.415,4.975744,
5.416,4.972785,
5.417,4.973771,
5.418,4.974428,
5.419,4.973442,
5.42,4.972785,
5.421,4.973113,
5.422,4.975086,
5.423,4.976072,
5.424,4.973113,
5.425,4.971141,
5.426,4.972456,
5.427,4.974428,
5.428,4.972456,
5.429,4.972456,
5.43,4.973771,
5.431,4.975415,
5.432,4.9741,
5.433,4.971469,
5.434,4.970812,
5.435,4.972456,
5.436,4.973442,
5.437,4.973113,
5.438,4.972785,
5.439,4.973113,
5.44,4.974428,
5.441,4.974757,
5.442,4.973113,
5.443,4.972785,
5.444,4.9741,
5.445,4.974757,
5.446,4.974757,
5.447,4.973771,
5.448,4.973771,
5.449,4.975744,
5.45,4.973113,
5.451,4.972456,
5.452,4.973113,
5.453,4.973442,
5.454,4.975086,
5.455,4.973113,
5.456,0.141175,
5.457,0.091198,
5.458,0.088239,
5.459,0.08791,
5.46,0.08791,
5.461,0.08791,
5.462,0.08791,
5.463,0.08791,
5.464,0.08791,
5.465,0.08791,
5.466,0.08791,
5.467,0.08791,
5.468,0.08791,
5.469,0.08791,
5.47,0.08791,
5.471,0.08791,
5.472,0.08791,
5.473,0.088239,
5.474,0.088239,
5.475,0.088239,
5.476,0.088239,
5.477,0.08791,
5.478,0.088568,
5.479,0.08791,
5.48,0.087582,
5.481,0.08791,
5.482,0.087582,
5.483,0.088239,
5.484,0.087582,
5.485,0.087582,
5.486,0.08791,
5.487,0.08791,
5.488,0.088239,
5.489,0.08791,
5.49,0.08791,
5.491,0.087582,
5.492,0.088239,
5.493,0.087582,
5.494,0.088239,
5.495,0.088239,
5.496,0.088239,
5.497,0.087582,
5.498,0.087582,
5.499,0.08791,
5.5,0.08791,
5.501,0.088239,
5.502,0.087582,
5.503,0.088568,
5.504,0.088568,
5.505,0.088239,
5.506,0.111583,
5.507,4.972785,
5.508,4.970483,
5.509,4.971141,
5.51,4.972127,
5.511,4.973771,
5.512,4.972785,
5.513,4.971798,
5.514,4.973771,
5.515,4.975744,
5.516,4.973113,
5.517,4.971798,
5.518,4.973442,
5.519,4.975086,
5.52,4.975415,
5.521,4.973771,
5.522,4.973771,
5.523,4.975744,
5.524,4.975415,
5.525,4.973113,
5.526,4.972456,
5.527,4.973771,
5.528,4.975086,
5.529,4.9741,
5.53,4.973771,
5.531,4.9741,
5.532,4.974428,
5.533,4.973442,
5.534,4.971141,
5.535,4.971798,
5.536,4.972127,
5.537,4.972127,
5.538,4.972127,
5.539,4.970483,
5.54,4.970812,
5.541,4.971798,
5.542,4.970483,
5.543,4.969825,
5.544,4.969825,
5.545,4.971469,
5.546,4.971798,
5.547,4.971469,
5.548,4.970812,
5.549,4.971141,
5.55,4.971469,
5.551,4.971798,
5.552,4.970812,
5.553,4.971469,
5.554,4.973771,
5.555,4.974428,
5.556,4.974428,
5.557,4.973771,
5.558,4.972456,
5.559,4.973771,
5.56,4.973771,
5.561,4.972456,
5.562,4.972456,
5.563,4.974757,
5.564,4.975744,
5.565,4.974428,
5.566,4.972785,
5.567,4.973771,
5.568,4.974428,
5.569,4.973442,
5.57,4.972785,
5.571,4.972127,
5.572,4.973771,
5.573,4.975415,
5.574,4.973113,
5.575,4.969825,
5.576,4.971469,
5.577,4.972456,
5.578,4.971798,
5.579,4.970812,
5.58,4.971798,
5.581,4.973442,
5.582,4.9741,
5.583,4.971469,
5.584,4.970812,
5.585,4.972456,
5.586,4.973113,
5.587,4.9741,
5.588,4.972127,
5.589,4.971141,
5.59,4.9741,
5.591,4.9741,
5.592,4.972127,
5.593,4.972127,
5.594,4.973113,
5.595,4.974757,
5.596,4.975086,
5.597,4.9741,
5.598,4.974428,
5.599,4.976401,
5.6,4.974428,
5.601,4.973771,
5.602,4.973442,
5.603,4.976072,
5.604,4.976401,
5.605,4.974757,
5.606,4.975744,
5.607,4.975086,
5.608,4.975744,
5.609,4.974428,
5.61,4.972785,
5.611,4.9741,
5.612,4.974428,
5.613,4.975415,
5.614,4.972785,
5.615,4.972456,
5.616,4.973771,
5.617,4.973113,
5.618,4.972456,
5.619,4.971469,
5.62,4.973771,
5.621,4.974428,
5.622,4.9741,
5.623,4.971141,
5.624,4.972456,
5.625,4.972785,
5.626,4.973113,
5.627,4.971798,
5.628,4.971798,
5.629,4.973442,
5.63,4.975415,
5.631,4.974757,
5.632,4.975086,
5.633,4.974757,
5.634,4.976401,
5.635,4.975086,
5.636,4.975086,
5.637,4.975086,
5.638,4.975744,
5.639,4.97673,
5.64,4.97673,
5.641,4.973442,
5.642,4.972785,
5.643,4.975086,
5.644,4.975086,
5.645,4.9741,
5.646,4.973442,
5.647,4.975086,
5.648,4.975086,
5.649,4.972456,
5.65,4.970154,
5.651,4.971141,
5.652,4.971798,
5.653,4.972456,
5.654,4.969825,
5.655,4.971141,
5.656,4.972456,
5.657,4.972456,
5.658,4.970154,
5.659,4.969497,
5.66,4.970483,
5.661,4.972127,
5.662,4.971469,
5.663,4.970812,
5.664,4.971141,
5.665,4.973113,
5.666,4.972456,
5.667,4.970483,
5.668,4.970154,
5.669,4.972456,
5.67,4.974757,
5.671,4.9741,
5.672,4.972127,
5.673,4.972456,
5.674,4.975415,
5.675,4.9741,
5.676,4.971798,
5.677,4.972456,
5.678,4.973113,
5.679,4.974428,
5.68,4.973771,
5.681,4.973771,
5.682,4.9741,
5.683,4.973771,
5.684,4.974428,
5.685,4.971798,
5.686,4.971798,
5.687,4.9741,
5.688,4.973771,
5.689,4.972456,
5.69,4.971798,
5.691,4.971469,
5.692,4.971798,
5.693,4.971469,
5.694,4.969825,
5.695,4.970812,
5.696,4.971798,
5.697,4.972456,
5.698,4.972456,
5.699,4.971141,
5.7,4.970154,
5.701,4.971141,
5.702,4.972127,
5.703,4.971141,
5.704,4.971798,
5.705,4.973113,
5.706,4.974757,
5.707,4.975086,
5.708,4.972785,
5.709,4.973113,
5.71,4.975415,
5.711,4.974757,
5.712,4.9741,
5.713,4.975415,
5.714,4.976401,
5.715,4.977059,
5.716,4.974428,
5.717,4.973113,
5.718,4.976401,
5.719,4.975744,
5.72,4.975086,
5.721,4.974428,
5.722,4.975744,
5.723,4.977716,
5.724,4.975744,
5.725,4.972127,
5.726,4.973113,
5.727,4.973771,
5.728,4.974428,
5.729,4.972456,
5.73,4.972456,
5.731,4.973771,
5.732,4.974428,
5.733,4.972127,
5.734,4.971141,
5.735,4.971798,
5.736,4.973771,
5.737,4.973442,
5.738,4.972127,
5.739,4.972456,
5.74,4.972456,
5.741,4.972127,
5.742,4.971469,
5.743,4.970483,
5.744,4.972127,
5.745,4.974428,
5.746,4.973771,
5.747,4.973771,
5.748,4.972785,
5.749,4.9741,
5.75,4.973442,
5.751,4.973771,
5.752,4.973113,
5.753,4.972785,
5.754,4.974757,
5.755,4.974428,
5.756,4.9741,
5.757,4.972785,
5.758,4.972456,
5.759,4.9741,
5.76,4.973771,
5.761,4.971798,
5.762,4.972785,
5.763,4.973113,
5.764,4.973113,
5.765,4.971469,
5.766,4.969497,
5.767,4.971141,
5.768,4.972127,
5.769,4.970154,
5.77,4.969497,
5.771,4.970483,
5.772,4.972127,
5.773,4.973113,
5.774,4.970812,
5.775,4.969168,
5.776,4.970483,
5.777,4.972127,
5.778,4.971141,
5.779,4.969825,
5.78,4.971469,
5.781,4.972456,
5.782,4.974428,
5.783,4.971469,
5.784,4.971469,
5.785,4.972785,
5.786,4.974428,
5.787,4.974757,
5.788,4.972785,
5.789,4.973442,
5.79,4.975744,
5.791,4.975415,
5.792,4.973113,
5.793,4.972456,
5.794,4.973771,
5.795,4.975415,
5.796,4.975086,
5.797,4.973442,
5.798,4.974428,
5.799,4.976072,
5.8,4.975086,
5.801,4.9741,
5.802,4.972785,
5.803,4.9741,
5.804,4.974757,
5.805,4.973113,
5.806,4.973113,
5.807,4.972127,
5.808,4.972456,
5.809,4.973113,
5.81,4.971141,
5.811,4.971469,
5.812,4.973113,
5.813,4.973771,
5.814,4.973442,
5.815,4.972456,
5.816,4.972456,
5.817,4.973771,
5.818,4.973442,
5.819,4.972456,
5.82,4.972785,
5.821,4.974428,
5.822,4.975744,
5.823,4.976072,
5.824,4.974757,
5.825,4.974428,
5.826,4.975744,
5.827,4.97673,
5.828,4.976072,
5.829,4.975086,
5.83,4.976401,
5.831,4.976401,
5.832,4.977059,
5.833,4.974428,
5.834,4.972785,
5.835,4.974428,
5.836,4.976401,
5.837,4.975086,
5.838,4.974428,
5.839,4.9741,
5.84,4.975086,
5.841,4.973771,
5.842,4.971798,
5.843,4.970812,
5.844,4.972456,
5.845,4.973442,
5.846,4.972127,
5.847,4.970483,
5.848,4.971469,
5.849,4.973113,
5.85,4.970812,
5.851,4.970812,
5.852,4.970154,
5.853,4.972456,
5.854,4.973771,
5.855,4.970812,
5.856,4.971798,
5.857,4.972127,
5.858,4.971469,
5.859,4.972127,
5.86,4.971141,
5.861,4.973113,
5.862,4.974428,
5.863,4.975415,
5.864,4.973771,
5.865,4.972785,
5.866,4.973771,
5.867,4.973442,
5.868,4.973771,
5.869,4.972785,
5.87,4.973771,
5.871,4.974428,
5.872,4.975086,
5.873,4.975086,
5.874,4.973771,
5.875,4.972456,
5.876,4.9741,
5.877,4.972785,
5.878,4.971469,
5.879,4.972456,
5.88,4.972785,
5.881,4.973442,
5.882,4.972456,
5.883,4.969825,
5.884,4.971141,
5.885,4.972127,
5.886,4.970812,
5.887,4.971141,
5.888,4.971798,
5.889,4.972785,
5.89,4.973771,
5.891,4.970483,
5.892,4.971141,
5.893,4.972785,
5.894,4.971798,
5.895,4.971141,
5.896,4.971469,
5.897,4.974428,
5.898,4.975415,
5.899,4.972456,
5.9,4.971798,
5.901,4.973771,
5.902,4.974757,
5.903,4.975415,
5.904,4.973113,
5.905,4.974428,
5.906,4.977388,
5.907,4.977059,
5.908,4.973771,
5.909,4.973113,
5.91,4.975415,
5.911,4.975744,
5.912,4.974428,
5.913,4.9741,
5.914,4.976401,
5.915,4.976072,
5.916,4.973771,
5.917,4.972785,
5.918,4.972127,
5.919,4.9741,
5.92,4.973771,
5.921,4.972127,
5.922,4.972785,
5.923,4.973113,
5.924,4.9741,
5.925,4.972456,
5.926,4.971469,
5.927,4.972127,
5.928,4.9741,
5.929,4.974428,
5.93,4.972456,
5.931,4.971798,
5.932,4.973113,
5.933,4.973771,
5.934,4.973442,
5.935,4.972456,
5.936,4.972785,
5.937,4.975415,
5.938,4.976072,
5.939,4.975086,
5.94,4.975415,
5.941,4.975744,
5.942,4.976072,
5.943,4.975086,
5.944,4.9741,
5.945,4.975415,
5.946,4.976401,
5.947,4.976072,
5.948,4.974428,
5.949,4.975086,
5.95,4.975744,
5.951,4.976401,
5.952,4.9741,
5.953,4.973771,
5.954,4.974757,
5.955,4.975086,
5.956,4.974428,
5.957,4.972127,
5.958,4.971141,
5.959,4.971469,
5.96,4.972127,
5.961,4.971141,
5.962,4.970812,
5.963,4.971469,
5.964,4.972785,
5.965,4.972456,
5.966,4.969497,
5.967,4.96851,
5.968,4.970483,
5.969,4.972127,
5.97,4.971469,
5.971,4.970483,
5.972,4.971469,
5.973,4.973442,
5.974,4.973442,
5.975,4.971798,
5.976,4.971798,
5.977,4.973113,
5.978,4.975744,
5.979,4.974428,
5.98,4.973442,
5.981,4.9741,
5.982,4.9741,
5.983,4.973113,
5.984,4.972785,
5.985,4.972456,
5.986,4.974428,
5.987,4.975086,
5.988,4.973442,
5.989,4.973113,
5.99,4.974428,
5.991,4.973113,
5.992,4.972127,
5.993,4.970483,
5.994,4.971798,
5.995,4.972127,
5.996,4.972127,
5.997,4.971469,
5.998,4.971141,
5.999,4.971141,
6,4.970483,
6.001,4.971141,
6.002,4.969825,
6.003,4.970154,
6.004,4.972127,
6.005,4.973113,
6.006,4.971141,
6.007,4.969825,
6.008,4.970483,
6.009,4.971141,
6.01,4.970812,
6.011,4.970154,
6.012,4.971469,
6.013,4.9741,
6.014,4.973442,
6.015,4.973442,
6.016,4.972127,
6.017,4.972785,
6.018,4.975086,
6.019,4.973771,
6.02,4.972785,
6.021,4.9741,
6.022,4.975744,
6.023,4.976401,
6.024,4.973113,
6.025,4.973113,
6.026,4.973442,
6.027,4.974757,
6.028,4.9741,
6.029,4.972785,
6.03,4.973442,
6.031,4.974757,
6.032,4.973442,
6.033,4.971469,
6.034,4.970154,
6.035,4.970812,
6.036,4.973113,
6.037,4.971469,
6.038,4.971141,
6.039,4.971798,
6.04,4.973771,
6.041,4.973113,
6.042,4.971141,
6.043,4.970483,
6.044,4.971469,
6.045,4.973113,
6.046,4.973113,
6.047,4.971469,
6.048,4.972785,
6.049,4.974428,
6.05,4.9741,
6.051,4.973771,
6.052,4.973771,
6.053,4.975086,
6.054,4.977716,
6.055,4.975744,
6.056,4.974757,
6.057,4.976072,
6.058,4.975744,
6.059,4.975744,
6.06,4.974757,
6.061,4.974757,
6.062,4.976072,
6.063,4.976072,
6.064,4.975086,
6.065,4.975086,
6.066,4.974757,
6.067,4.975086,
6.068,4.975086,
6.069,4.973442,
6.07,4.972785,
6.071,4.973771,
6.072,4.974428,
6.073,4.973442,
6.074,4.971798,
6.075,4.972127,
6.076,4.972785,
6.077,4.971469,
6.078,4.971469,
6.079,4.972456,
6.08,4.974428,
6.081,4.973771,
6.082,4.972127,
6.083,4.970483,
6.084,4.972127,
6.085,4.973442,
6.086,4.971798,
6.087,4.971469,
6.088,4.973771,
6.089,4.974757,
6.09,4.974428,
6.091,4.972785,
6.092,4.973113,
6.093,4.9741,
6.094,4.9741,
6.095,4.973771,
6.096,4.973771,
6.097,4.975086,
6.098,4.975086,
6.099,4.974428,
6.1,4.972127,
6.101,4.972456,
6.102,4.974757,
6.103,4.974757,
6.104,4.973113,
6.105,4.972456,
6.106,4.974428,
6.107,4.975086,
6.108,4.971798,
6.109,4.970483,
6.11,4.970812,
6.111,4.972456,
6.112,4.972456,
6.113,4.970483,
6.114,4.971141,
6.115,4.971469,
6.116,4.972127,
6.117,4.970483,
6.118,4.969168,
6.119,4.970812,
6.12,4.972456,
6.121,4.972127,
6.122,4.971141,
6.123,4.970154,
6.124,4.971798,
6.125,4.971798,
6.126,4.970483,
6.127,4.970812,
6.128,4.972456,
6.129,4.9741,
6.13,4.973771,
6.131,4.973771,
6.132,4.9741,
6.133,4.9741,
6.134,4.9741,
6.135,4.973771,
6.136,4.973113,
6.137,4.974428,
6.138,4.975744,
6.139,4.974428,
6.14,4.975415,
6.141,4.9741,
6.142,4.974428,
6.143,4.975086,
6.144,4.972127,
6.145,4.973113,
6.146,4.974428,
6.147,4.973113,
6.148,4.973771,
6.149,4.971469,
6.15,4.971798,
6.151,4.973442,
6.152,4.971798,
6.153,4.970812,
6.154,4.972785,
6.155,4.974428,
6.156,4.974428,
6.157,4.973442,
6.158,4.971469,
6.159,4.972456,
6.16,4.974428,
6.161,4.972456,
6.162,4.972127,
6.163,4.9741,
6.164,4.975086,
6.165,4.973771,
6.166,4.973113,
6.167,4.972456,
6.168,4.975415,
6.169,4.97673,
6.17,4.974428,
6.171,4.975415,
6.172,4.977059,
6.173,4.977059,
6.174,4.975744,
6.175,4.974428,
6.176,4.974428,
6.177,4.976072,
6.178,4.975744,
6.179,4.974428,
6.18,4.976072,
6.181,4.976401,
6.182,4.976401,
6.183,4.973113,
6.184,4.972456,
6.185,4.973771,
6.186,4.974428,
6.187,4.973442,
6.188,4.972127,
6.189,4.971469,
6.19,4.973442,
6.191,4.970812,
6.192,4.970812,
6.193,4.970154,
6.194,4.971469,
6.195,4.973442,
6.196,4.971798,
6.197,4.971141,
6.198,4.971469,
6.199,4.971798,
6.2,4.971469,
6.201,4.969825,
6.202,4.969825,
6.203,4.972456,
6.204,4.973771,
6.205,4.973113,
6.206,4.972785,
6.207,4.9741,
6.208,4.973771,
6.209,4.973113,
6.21,4.972456,
6.211,4.973442,
6.212,4.975086,
6.213,4.974757,
6.214,4.973113,
6.215,4.973113,
6.216,4.9741,
6.217,4.973771,
6.218,4.972456,
6.219,4.972785,
6.22,4.973113,
6.221,4.974757,
6.222,4.973771,
6.223,4.973771,
6.224,4.971798,
6.225,4.971469,
6.226,4.971798,
6.227,4.971469,
6.228,4.970483,
6.229,4.972785,
6.23,4.973442,
6.231,4.9741,
6.232,4.973113,
6.233,4.970812,
6.234,4.973113,
6.235,4.973771,
6.236,4.971469,
6.237,4.972127,
6.238,4.9741,
6.239,4.974428,
6.24,4.974757,
6.241,4.972127,
6.242,4.973113,
6.243,4.974428,
6.244,4.975744,
6.245,4.974757,
6.246,4.974428,
6.247,4.977059,
6.248,4.977716,
6.249,4.975744,
6.25,4.974428,
6.251,4.9741,
6.252,4.975744,
6.253,4.977388,
6.254,4.974757,
6.255,4.974757,
6.256,4.975744,
6.257,4.976072,
6.258,4.975415,
6.259,4.973442,
6.26,4.973113,
6.261,4.974757,
6.262,4.973771,
6.263,4.973113,
6.264,4.973113,
6.265,4.9741,
6.266,4.972785,
6.267,4.971141,
6.268,4.970812,
6.269,4.971798,
6.27,4.972456,
6.271,4.973771,
6.272,4.971798,
6.273,4.971469,
6.274,4.971798,
6.275,4.971798,
6.276,4.971141,
6.277,4.970483,
6.278,4.970812,
6.279,4.973771,
6.28,4.972785,
6.281,4.973771,
6.282,4.973442,
6.283,4.972785,
6.284,4.974428,
6.285,4.9741,
6.286,4.972456,
6.287,4.974757,
6.288,4.975086,
6.289,4.975415,
6.29,4.974428,
6.291,4.972456,
6.292,4.973771,
6.293,4.975086,
6.294,4.973113,
6.295,4.971798,
6.296,4.9741,
6.297,4.974757,
6.298,4.974428,
6.299,4.972456,
6.3,4.969825,
6.301,4.972785,
6.302,4.973113,
6.303,4.971469,
6.304,4.970483,
6.305,4.971141,
6.306,4.973442,
6.307,4.9741,
6.308,4.970154,
6.309,4.970483,
6.31,4.972456,
6.311,4.973113,
6.312,4.971469,
6.313,4.971798,
6.314,4.973442,
6.315,4.974428,
6.316,4.971798,
6.317,4.971469,
6.318,4.972456,
6.319,4.975086,
6.32,4.975744,
6.321,4.974428,
6.322,4.974428,
6.323,4.976401,
6.324,4.97673,
6.325,4.974757,
6.326,4.974428,
6.327,4.975086,
6.328,4.977059,
6.329,4.975744,
6.33,4.975086,
6.331,4.975744,
6.332,4.975744,
6.333,4.975086,
6.334,4.974428,
6.335,4.973442,
6.336,4.975086,
6.337,4.975744,
6.338,4.974428,
6.339,4.9741,
6.34,4.973113,
6.341,4.973442,
6.342,4.9741,
6.343,4.971798,
6.344,4.971469,
6.345,4.972456,
6.346,4.973442,
6.347,4.974428,
6.348,4.972127,
6.349,4.970812,
6.35,4.971141,
6.351,4.973442,
6.352,4.973113,
6.353,4.970483,
6.354,4.971469,
6.355,4.972785,
6.356,4.973771,
6.357,4.9741,
6.358,4.971469,
6.359,4.971141,
6.36,4.974428,
6.361,4.975086,
6.362,4.973442,
6.363,4.973113,
6.364,4.9741,
6.365,4.976072,
6.366,4.973442,
6.367,4.971141,
6.368,4.971798,
6.369,4.975086,
6.37,4.975086,
6.371,4.973771,
6.372,4.972127,
6.373,4.973771,
6.374,4.973771,
6.375,4.971798,
6.376,4.970154,
6.377,4.971798,
6.378,4.972127,
6.379,4.971798,
6.38,4.970154,
6.381,4.971469,
6.382,4.971469,
6.383,4.971798,
6.384,4.970812,
6.385,4.969825,
6.386,4.971798,
6.387,4.972785,
6.388,4.972456,
6.389,4.971798,
6.39,4.971798,
6.391,4.971798,
6.392,4.972127,
6.393,4.004816,
6.394,0.096459,
6.395,0.088568,
6.396,0.088239,
6.397,0.088239,
6.398,0.08791,
6.399,0.088568,
6.4,0.088239,
6.401,0.088239,
6.402,0.08791,
6.403,0.08791,
6.404,0.08791,
6.405,0.08791,
6.406,0.088239,
6.407,0.088239,
6.408,0.08791,
6.409,0.08791,
6.41,0.088239,
6.411,0.08791,
6.412,0.08791,
6.413,0.087582,
6.414,0.08791,
6.415,0.088568,
6.416,0.08791,
6.417,0.088239,
6.418,0.088568,
6.419,0.088239,
6.42,0.088568,
6.421,0.087582,
6.422,0.087582,
6.423,0.088568,
6.424,0.088239,
6.425,0.088239,
6.426,0.088239,
6.427,0.088239,
6.428,0.088239,
6.429,0.088568,
6.43,0.088568,
6.431,0.088568,
6.432,0.088568,
6.433,0.08791,
6.434,0.088239,
6.435,0.088239,
6.436,0.087582,
6.437,0.08791,
6.438,0.087582,
6.439,0.08791,
6.44,0.08791,
6.441,0.092185,
6.442,0.101062,
6.443,0.12079,
6.444,4.957331,
6.445,4.975415,
6.446,4.973771,
6.447,4.972785,
6.448,4.9741,
6.449,4.974757,
6.45,4.973113,
6.451,4.971141,
6.452,4.971469,
6.453,4.973113,
6.454,4.973113,
6.455,4.971141,
6.456,4.970483,
6.457,4.971798,
6.458,4.971141,
6.459,4.970154,
6.46,4.969168,
6.461,4.970812,
6.462,4.972127,
6.463,4.971798,
6.464,4.970812,
6.465,4.971141,
6.466,4.970812,
6.467,4.971798,
6.468,4.971798,
6.469,4.970812,
6.47,4.971798,
6.471,4.973442,
6.472,4.975086,
6.473,4.975086,
6.474,4.972785,
6.475,4.974428,
6.476,4.974757,
6.477,4.974428,
6.478,4.972785,
6.479,4.974428,
6.48,4.975744,
6.481,4.977388,
6.482,4.975086,
6.483,4.973442,
6.484,4.9741,
6.485,4.976401,
6.486,4.976401,
6.487,4.974757,
6.488,4.975415,
6.489,4.975744,
6.49,4.976072,
6.491,4.973113,
6.492,4.971469,
6.493,4.973442,
6.494,4.9741,
6.495,4.972785,
6.496,4.972456,
6.497,4.973113,
6.498,4.974757,
6.499,4.973442,
6.5,4.971141,
6.501,4.972456,
6.502,4.973113,
6.503,4.973113,
6.504,4.972785,
6.505,4.972456,
6.506,4.972456,
6.507,4.973771,
6.508,4.971798,
6.509,4.971141,
6.51,4.972456,
6.511,4.975086,
6.512,4.975744,
6.513,4.9741,
6.514,4.975415,
6.515,4.975415,
6.516,4.975744,
6.517,4.974428,
6.518,4.972785,
6.519,4.973771,
6.52,4.974757,
6.521,4.975415,
6.522,4.974428,
6.523,4.972456,
6.524,4.973771,
6.525,4.973771,
6.526,4.973113,
6.527,4.971798,
6.528,4.971798,
6.529,4.973113,
6.53,4.973442,
6.531,4.971141,
6.532,4.971141,
6.533,4.970483,
6.534,4.971469,
6.535,4.970483,
6.536,4.969497,
6.537,4.971469,
6.538,4.972127,
6.539,4.972127,
6.54,4.972127,
6.541,4.969497,
6.542,4.970483,
6.543,4.972785,
6.544,4.970812,
6.545,4.970154,
6.546,4.971141,
6.547,4.973113,
6.548,4.974428,
6.549,4.972456,
6.55,4.971141,
6.551,4.973113,
6.552,4.974428,
6.553,4.974428,
6.554,4.9741,
6.555,4.975086,
6.556,4.976072,
6.557,4.975744,
6.558,4.973113,
6.559,4.972456,
6.56,4.974428,
6.561,4.975086,
6.562,4.973113,
6.563,4.973771,
6.564,4.975744,
6.565,4.975086,
6.566,4.972456,
6.567,4.971141,
6.568,4.971141,
6.569,4.973113,
6.57,4.972127,
6.571,4.970483,
6.572,4.970812,
6.573,4.972127,
6.574,4.973442,
6.575,4.972456,
6.576,4.970483,
6.577,4.971141,
6.578,4.973113,
6.579,4.973442,
6.58,4.971798,
6.581,4.972785,
6.582,4.9741,
6.583,4.973113,
6.584,4.971798,
6.585,4.971798,
6.586,4.972785,
6.587,4.975086,
6.588,4.975744,
6.589,4.975086,
6.59,4.974757,
6.591,4.975415,
6.592,4.975086,
6.593,4.974757,
6.594,4.9741,
6.595,4.976401,
6.596,4.97673,
6.597,4.975086,
6.598,4.975744,
6.599,4.974428,
6.6,4.975086,
6.601,4.975086,
6.602,4.974428,
6.603,4.9741,
6.604,4.974757,
6.605,4.976401,
6.606,4.974757,
6.607,4.972127,
6.608,4.971798,
6.609,4.973113,
6.61,4.973442,
6.611,4.972127,
6.612,4.972456,
6.613,4.973771,
6.614,4.974428,
6.615,4.972785,
6.616,4.970483,
6.617,4.971141,
6.618,4.973442,
6.619,4.973113,
6.62,4.970812,
6.621,4.972456,
6.622,4.9741,
6.623,4.973442,
6.624,4.971469,
6.625,4.970812,
6.626,4.973771,
6.627,4.974757,
6.628,4.973113,
6.629,4.973113,
6.63,4.974428,
6.631,4.975415,
6.632,4.974757,
6.633,4.972127,
6.634,4.972456,
6.635,4.975086,
6.636,4.975086,
6.637,4.973113,
6.638,4.972127,
6.639,4.975086,
6.64,4.976072,
6.641,4.972785,
6.642,4.971141,
6.643,4.971141,
6.644,4.972785,
6.645,4.972785,
6.646,4.972127,
6.647,4.970483,
6.648,4.972127,
6.649,4.971141,
6.65,4.969825,
6.651,4.969825,
6.652,4.970483,
6.653,4.971798,
6.654,4.971141,
6.655,4.970812,
6.656,4.973442,
6.657,4.972785,
6.658,4.971141,
6.659,4.969825,
6.66,4.970483,
6.661,4.972785,
6.662,4.973771,
6.663,4.972456,
6.664,4.973442,
6.665,4.9741,
6.666,4.975086,
6.667,4.975086,
6.668,4.973442,
6.669,4.973771,
6.67,4.975744,
6.671,4.97673,
6.672,4.975415,
6.673,4.974757,
6.674,4.975415,
6.675,4.975744,
6.676,4.974428,
6.677,4.973113,
6.678,4.975086,
6.679,4.976072,
6.68,4.976072,
6.681,4.975086,
6.682,4.973113,
6.683,4.9741,
6.684,4.9741,
6.685,4.971798,
6.686,4.972127,
6.687,4.973771,
6.688,4.973771,
6.689,4.972785,
6.69,4.973442,
6.691,4.972785,
6.692,4.973442,
6.693,4.9741,
6.694,4.972127,
6.695,4.972456,
6.696,4.973771,
6.697,4.973771,
6.698,4.973771,
6.699,4.971469,
6.7,4.972785,
6.701,4.973771,
6.702,4.973113,
6.703,4.973771,
6.704,4.973771,
6.705,4.97673,
6.706,4.976072,
6.707,4.973771,
6.708,4.972785,
6.709,4.974428,
6.71,4.975086,
6.711,4.974428,
6.712,4.973113,
6.713,4.974757,
6.714,4.975415,
6.715,4.974757,
6.716,4.971798,
6.717,4.971798,
6.718,4.9741,
6.719,4.973771,
6.72,4.971469,
6.721,4.971141,
6.722,4.973113,
6.723,4.973113,
6.724,4.970483,
6.725,4.969497,
6.726,4.971469,
6.727,4.971798,
6.728,4.970154,
6.729,4.970483,
6.73,4.971141,
6.731,4.972456,
6.732,4.971469,
6.733,4.969168,
6.734,4.969825,
6.735,4.971798,
6.736,4.971798,
6.737,4.971469,
6.738,4.971141,
6.739,4.973113,
6.74,4.975415,
6.741,4.972785,
6.742,4.972127,
6.743,4.973113,
6.744,4.974757,
6.745,4.975415,
6.746,4.9741,
6.747,4.973771,
6.748,4.975744,
6.749,4.975086,
6.75,4.9741,
6.751,4.972785,
6.752,4.9741,
6.753,4.976072,
6.754,4.974428,
6.755,4.974757,
6.756,4.975086,
6.757,4.975086,
6.758,4.9741,
6.759,4.972127,
6.76,4.971469,
6.761,4.972456,
6.762,4.973442,
6.763,4.972785,
6.764,4.972456,
6.765,4.973113,
6.766,4.973771,
6.767,4.972785,
6.768,4.971469,
6.769,4.971798,
6.77,4.973113,
6.771,4.974757,
6.772,4.972127,
6.773,4.972456,
6.774,4.972456,
6.775,4.973442,
6.776,4.973771,
6.777,4.973771,
6.778,4.973771,
6.779,4.976401,
6.78,4.975744,
6.781,4.975415,
6.782,4.975086,
6.783,4.975086,
6.784,4.976072,
6.785,4.975415,
6.786,4.975086,
6.787,4.975744,
6.788,4.977388,
6.789,4.977059,
6.79,4.975086,
6.791,4.972785,
6.792,4.975086,
6.793,4.975415,
6.794,4.974428,
6.795,4.973771,
6.796,4.9741,
6.797,4.975744,
6.798,4.9741,
6.799,4.970812,
6.8,4.970483,
6.801,4.971469,
6.802,4.973113,
6.803,4.971469,
6.804,4.971141,
6.805,4.972785,
6.806,4.973771,
6.807,4.972785,
6.808,4.969497,
6.809,4.969497,
6.81,4.972127,
6.811,4.972127,
6.812,4.971469,
6.813,4.970483,
6.814,4.972456,
6.815,4.973442,
6.816,4.972127,
6.817,4.971798,
6.818,4.973113,
6.819,4.973771,
6.82,4.974757,
6.821,4.973771,
6.822,4.973771,
6.823,4.975415,
6.824,4.974428,
6.825,4.972127,
6.826,4.972456,
6.827,4.973113,
6.828,4.974428,
6.829,4.973113,
6.83,4.972785,
6.831,4.974428,
6.832,4.974757,
6.833,4.972456,
6.834,4.971141,
6.835,4.972127,
6.836,4.973771,
6.837,4.972127,
6.838,4.970812,
6.839,4.971141,
6.84,4.973442,
6.841,4.972785,
6.842,4.971141,
6.843,4.970812,
6.844,4.972785,
6.845,4.972785,
6.846,4.972456,
6.847,4.970483,
6.848,4.972785,
6.849,4.973771,
6.85,4.972127,
6.851,4.971469,
6.852,4.971469,
6.853,4.973771,
6.854,4.975415,
6.855,4.975086,
6.856,4.974428,
6.857,4.974428,
6.858,4.975086,
6.859,4.976072,
6.86,4.974428,
6.861,4.974428,
6.862,4.975415,
6.863,4.976072,
6.864,4.976401,
6.865,4.975744,
6.866,4.974428,
6.867,4.976401,
6.868,4.974757,
6.869,4.974757,
6.87,4.976072,
6.871,4.975744,
6.872,4.975744,
6.873,4.974428,
6.874,4.972127,
6.875,4.973771,
6.876,4.9741,
6.877,4.971798,
6.878,4.972456,
6.879,4.973442,
6.88,4.9741,
6.881,4.973771,
6.882,4.971469,
6.883,4.971798,
6.884,4.973442,
6.885,4.973113,
6.886,4.971798,
6.887,4.972456,
6.888,4.974757,
6.889,4.974757,
6.89,4.973113,
6.891,4.971469,
6.892,4.972456,
6.893,4.974757,
6.894,4.974428,
6.895,4.973771,
6.896,4.974428,
6.897,4.976072,
6.898,4.975415,
6.899,4.973113,
6.9,4.971798,
6.901,4.973442,
6.902,4.974757,
6.903,4.974428,
6.904,4.973442,
6.905,4.973442,
6.906,4.974757,
6.907,4.975415,
6.908,4.971141,
6.909,4.971469,
6.91,4.973113,
6.911,4.973771,
6.912,4.971798,
6.913,4.970812,
6.914,4.971798,
6.915,4.973442,
6.916,4.970483,
6.917,4.969825,
6.918,4.969825,
6.919,4.972456,
6.92,4.971469,
6.921,4.970483,
6.922,4.971469,
6.923,4.973442,
6.924,4.972456,
6.925,4.970483,
6.926,4.969168,
6.927,4.972127,
6.928,4.972127,
6.929,4.971469,
6.93,4.972456,
6.931,4.973771,
6.932,4.975415,
6.933,4.974428,
6.934,4.973442,
6.935,4.973442,
6.936,4.975415,
6.937,4.976072,
6.938,4.975415,
6.939,4.974757,
6.94,4.974428,
6.941,4.975415,
6.942,4.975415,
6.943,4.9741,
6.944,4.973442,
6.945,4.975086,
6.946,4.976401,
6.947,4.974428,
6.948,4.973113,
6.949,4.973113,
6.95,4.972785,
6.951,4.973771,
6.952,4.971141,
6.953,4.972456,
6.954,4.973442,
6.955,4.973442,
6.956,4.973113,
6.957,4.971798,
6.958,4.972456,
6.959,4.974428,
6.96,4.971469,
6.961,4.971141,
6.962,4.9741,
6.963,4.973442,
6.964,4.9741,
6.965,4.973442,
6.966,4.971141,
6.967,4.973771,
6.968,4.9741,
6.969,4.973113,
6.97,4.9741,
6.971,4.975744,
6.972,4.976401,
6.973,4.976401,
6.974,4.9741,
6.975,4.974428,
6.976,4.975415,
6.977,4.976072,
6.978,4.975086,
6.979,4.974757,
6.98,4.97673,
6.981,4.976072,
6.982,4.974428,
6.983,4.973113,
6.984,4.973442,
6.985,4.974757,
6.986,4.9741,
6.987,4.972127,
6.988,4.972456,
6.989,4.972785,
6.99,4.973113,
6.991,4.971141,
6.992,4.969497,
6.993,4.971141,
6.994,4.973113,
6.995,4.973113,
6.996,4.971469,
6.997,4.970812,
6.998,4.972127,
6.999,4.972785,
